room_temperature(K),292.54
water_volume(mL),500.0
solute_molarmass(g/mol),74.551
solute_mass(g),10.0230
R1(Omega),9.54
R2(Omega),9.62
t1(s),395.243
t2(s),585.190
current(A),1.45
time(s),Delta_T(K)
0.362,-0.001
0.978,-0.002
1.620,-0.002
2.259,-0.002
2.876,-0.001
3.517,-0.002
4.157,-0.002
4.774,-0.002
5.415,-0.002
6.055,-0.002
6.672,-0.002
7.312,-0.003
7.953,-0.003
8.570,-0.003
9.211,-0.003
9.851,-0.003
10.468,-0.003
11.108,-0.002
11.749,-0.002
12.367,-0.002
13.007,-0.003
13.647,-0.003
14.263,-0.002
14.904,-0.002
15.545,-0.003
16.162,-0.003
16.802,-0.002
17.443,-0.002
18.060,-0.002
18.701,-0.002
19.341,-0.002
19.958,-0.002
20.598,-0.002
21.238,-0.003
21.856,-0.002
22.496,-0.002
23.137,-0.002
23.754,-0.002
24.394,-0.003
25.035,-0.002
25.652,-0.002
26.292,-0.002
26.933,-0.003
27.549,-0.002
28.190,-0.002
28.830,-0.002
29.447,-0.002
30.088,-0.002
30.728,-0.003
31.345,-0.002
31.986,-0.003
32.627,-0.002
33.243,-0.002
33.884,-0.002
34.523,-0.002
35.140,-0.002
35.781,-0.002
36.422,-0.003
37.039,-0.002
37.680,-0.002
38.319,-0.003
38.937,-0.002
39.577,-0.002
40.218,-0.002
40.836,-0.002
41.475,-0.003
42.115,-0.002
42.732,-0.002
43.372,-0.002
44.014,-0.002
44.630,-0.002
45.271,-0.002
45.912,-0.002
46.529,-0.002
47.169,-0.002
47.809,-0.002
48.425,-0.002
49.066,-0.002
49.708,-0.002
50.324,-0.002
50.965,-0.002
51.605,-0.003
52.222,-0.002
52.863,-0.002
53.504,-0.002
54.120,-0.002
54.761,-0.002
55.401,-0.002
56.017,-0.002
56.658,-0.002
57.298,-0.002
57.916,-0.002
58.557,-0.002
59.197,-0.002
59.814,-0.002
60.454,-0.002
61.095,-0.003
61.712,-0.002
62.353,-0.002
62.992,-0.001
63.610,-0.002
64.250,-0.002
64.890,-0.003
65.508,-0.002
66.148,-0.002
66.788,-0.002
67.406,-0.002
68.046,-0.003
68.687,-0.003
69.304,-0.002
69.944,-0.003
70.584,-0.002
71.201,-0.002
71.842,-0.002
72.482,-0.003
73.099,-0.002
73.740,-0.002
74.381,-0.001
74.998,-0.001
75.638,-0.002
76.279,-0.001
76.896,-0.002
77.535,-0.001
78.176,-0.002
78.793,-0.003
79.433,-0.002
80.073,-0.003
80.691,-0.001
81.331,-0.001
81.972,-0.002
82.589,-0.003
83.229,-0.003
83.870,-0.002
84.486,-0.002
85.127,-0.002
85.768,-0.002
86.384,-0.002
87.025,-0.002
87.666,-0.002
88.283,-0.002
88.923,-0.002
89.564,-0.002
90.181,-0.001
90.821,-0.002
91.461,-0.002
92.078,-0.003
92.719,-0.002
93.360,-0.002
93.976,-0.002
94.617,-0.001
95.257,-0.002
95.874,-0.003
96.515,-0.002
97.156,-0.002
97.772,-0.002
98.411,-0.002
99.053,-0.002
99.670,-0.002
100.311,-0.002
100.951,-0.002
101.567,-0.002
102.209,-0.002
102.849,-0.002
103.466,-0.002
104.106,-0.002
104.747,-0.002
105.363,-0.002
106.003,-0.002
106.644,-0.002
107.261,-0.002
107.901,-0.002
108.543,-0.003
109.159,-0.002
109.800,-0.001
110.440,-0.002
111.057,-0.002
111.698,-0.002
112.337,-0.002
112.954,-0.002
113.595,-0.001
114.236,-0.002
114.852,-0.002
115.493,-0.002
116.134,-0.003
116.751,-0.002
117.392,-0.002
118.033,-0.002
118.649,-0.002
119.289,-0.002
119.930,-0.002
120.546,-0.002
121.186,-0.002
121.827,-0.002
122.444,-0.002
123.085,-0.002
123.726,-0.002
124.342,-0.002
124.983,-0.002
125.624,-0.002
126.240,-0.001
126.880,-0.002
127.520,-0.002
128.138,-0.002
128.778,-0.002
129.420,-0.002
130.036,-0.002
130.677,-0.002
131.317,-0.002
131.934,-0.002
132.574,-0.002
133.216,-0.004
133.831,-0.027
134.472,-0.058
135.113,-0.092
135.730,-0.157
136.370,-0.189
137.011,-0.219
137.627,-0.280
138.269,-0.310
138.908,-0.339
139.526,-0.392
140.166,-0.417
140.806,-0.442
141.422,-0.491
142.063,-0.515
142.704,-0.537
143.321,-0.581
143.962,-0.602
144.602,-0.623
145.219,-0.663
145.860,-0.682
146.500,-0.701
147.118,-0.738
147.757,-0.757
148.397,-0.775
149.014,-0.808
149.654,-0.824
150.295,-0.840
150.912,-0.870
151.553,-0.885
152.194,-0.899
152.811,-0.926
153.451,-0.940
154.091,-0.953
154.708,-0.979
155.348,-0.992
155.989,-1.004
156.606,-1.028
157.246,-1.040
157.887,-1.052
158.504,-1.074
159.145,-1.084
159.785,-1.095
160.402,-1.116
161.043,-1.127
161.683,-1.136
162.299,-1.157
162.940,-1.167
163.580,-1.176
164.198,-1.194
164.838,-1.203
165.478,-1.212
166.095,-1.229
166.736,-1.236
167.377,-1.246
167.994,-1.262
168.634,-1.269
169.273,-1.277
169.891,-1.289
170.532,-1.297
171.172,-1.303
171.789,-1.316
172.429,-1.322
173.070,-1.328
173.687,-1.342
174.328,-1.348
174.968,-1.354
175.584,-1.366
176.225,-1.371
176.866,-1.377
177.483,-1.387
178.123,-1.394
178.763,-1.399
179.381,-1.409
180.021,-1.414
180.662,-1.419
181.279,-1.429
181.919,-1.433
182.560,-1.438
183.176,-1.447
183.816,-1.451
184.457,-1.455
185.074,-1.463
185.714,-1.467
186.355,-1.471
186.972,-1.479
187.613,-1.483
188.253,-1.486
188.870,-1.494
189.511,-1.497
190.150,-1.501
190.767,-1.508
191.408,-1.511
192.049,-1.515
192.666,-1.521
193.306,-1.525
193.947,-1.527
194.564,-1.533
195.204,-1.536
195.844,-1.538
196.462,-1.543
197.102,-1.546
197.742,-1.549
198.358,-1.554
198.999,-1.556
199.640,-1.558
200.256,-1.563
200.898,-1.565
201.538,-1.567
202.155,-1.572
202.795,-1.574
203.436,-1.576
204.053,-1.581
204.692,-1.582
205.334,-1.584
205.950,-1.589
206.591,-1.590
207.231,-1.591
207.848,-1.595
208.418,-1.597
209.059,-1.598
209.758,-1.601
210.398,-1.603
211.181,-1.605
211.822,-1.606
212.606,-1.609
213.246,-1.611
214.028,-1.613
214.669,-1.614
215.451,-1.615
216.092,-1.617
216.875,-1.618
217.515,-1.619
218.299,-1.621
218.939,-1.622
219.722,-1.623
220.362,-1.624
221.145,-1.626
221.785,-1.626
222.568,-1.627
223.209,-1.628
223.992,-1.628
224.632,-1.629
225.416,-1.630
226.055,-1.630
226.839,-1.631
227.480,-1.631
228.262,-1.631
228.902,-1.632
229.685,-1.633
230.326,-1.633
231.110,-1.633
231.749,-1.633
232.532,-1.633
233.173,-1.634
233.956,-1.634
234.596,-1.634
235.379,-1.634
236.020,-1.634
236.802,-1.634
237.443,-1.635
238.226,-1.634
238.866,-1.635
239.649,-1.635
240.290,-1.635
241.072,-1.635
241.713,-1.635
242.496,-1.635
243.137,-1.635
243.919,-1.635
244.560,-1.635
245.343,-1.636
245.983,-1.636
246.767,-1.635
247.407,-1.635
248.189,-1.636
248.829,-1.635
249.613,-1.635
250.253,-1.635
251.036,-1.635
251.676,-1.635
252.460,-1.635
253.100,-1.635
253.883,-1.635
254.523,-1.634
255.307,-1.635
255.947,-1.635
256.729,-1.635
257.370,-1.635
258.153,-1.634
258.793,-1.634
259.576,-1.634
260.217,-1.634
261.000,-1.634
261.640,-1.634
262.423,-1.634
263.063,-1.634
263.847,-1.634
264.486,-1.634
265.270,-1.634
265.910,-1.633
266.692,-1.634
267.334,-1.633
268.116,-1.634
268.757,-1.633
269.540,-1.633
270.181,-1.634
270.963,-1.632
271.604,-1.634
272.386,-1.633
273.027,-1.633
273.811,-1.633
274.451,-1.633
275.233,-1.632
275.874,-1.633
276.656,-1.633
277.297,-1.632
278.081,-1.633
278.720,-1.633
279.504,-1.633
280.144,-1.633
280.927,-1.632
281.567,-1.632
282.349,-1.632
282.990,-1.633
283.775,-1.632
284.414,-1.632
285.197,-1.632
285.837,-1.632
286.621,-1.632
287.261,-1.632
288.044,-1.632
288.683,-1.631
289.468,-1.631
290.108,-1.631
290.891,-1.632
291.531,-1.631
292.313,-1.631
292.954,-1.631
293.738,-1.631
294.377,-1.631
295.161,-1.631
295.801,-1.631
296.583,-1.630
297.225,-1.631
298.007,-1.630
298.647,-1.631
299.432,-1.630
300.071,-1.631
300.854,-1.631
301.494,-1.631
302.277,-1.630
302.918,-1.630
303.701,-1.631
304.341,-1.630
305.124,-1.630
305.764,-1.630
306.547,-1.630
307.188,-1.629
307.970,-1.630
308.611,-1.629
309.394,-1.630
310.035,-1.629
310.817,-1.629
311.458,-1.629
312.241,-1.629
312.881,-1.629
313.665,-1.630
314.304,-1.629
315.088,-1.629
315.729,-1.629
316.510,-1.628
317.151,-1.629
317.934,-1.628
318.575,-1.629
319.357,-1.629
319.999,-1.628
320.781,-1.629
321.422,-1.629
322.204,-1.629
322.844,-1.629
323.627,-1.628
324.268,-1.628
325.051,-1.628
325.692,-1.629
326.475,-1.628
327.115,-1.629
327.897,-1.628
328.538,-1.628
329.321,-1.628
329.961,-1.628
330.744,-1.628
331.385,-1.627
332.168,-1.628
332.808,-1.628
333.590,-1.627
334.232,-1.628
335.015,-1.628
335.654,-1.628
336.438,-1.628
337.078,-1.627
337.861,-1.627
338.501,-1.628
339.284,-1.628
339.925,-1.628
340.708,-1.627
341.348,-1.627
342.131,-1.627
342.772,-1.627
343.555,-1.627
344.195,-1.626
344.978,-1.626
345.618,-1.627
346.401,-1.627
347.041,-1.627
347.825,-1.627
348.466,-1.627
349.248,-1.626
349.888,-1.627
350.671,-1.626
351.312,-1.626
352.094,-1.627
352.734,-1.626
353.518,-1.626
354.159,-1.626
354.942,-1.626
355.582,-1.626
356.365,-1.626
357.004,-1.626
357.787,-1.625
358.428,-1.627
359.211,-1.626
359.852,-1.625
360.634,-1.626
361.275,-1.626
362.058,-1.625
362.698,-1.625
363.481,-1.625
364.122,-1.625
364.904,-1.625
365.545,-1.625
366.328,-1.625
366.969,-1.625
367.751,-1.625
368.391,-1.625
369.174,-1.624
369.815,-1.625
370.597,-1.626
371.238,-1.624
372.022,-1.625
372.662,-1.624
373.444,-1.624
374.085,-1.624
374.868,-1.624
375.508,-1.624
376.291,-1.624
376.932,-1.624
377.715,-1.623
378.355,-1.624
379.138,-1.623
379.779,-1.623
380.561,-1.624
381.202,-1.623
381.984,-1.623
382.626,-1.623
383.408,-1.624
384.048,-1.623
384.830,-1.623
385.472,-1.623
386.255,-1.623
386.895,-1.623
387.678,-1.622
388.319,-1.623
389.101,-1.623
389.742,-1.622
390.524,-1.622
391.165,-1.623
391.948,-1.622
392.588,-1.622
393.372,-1.622
394.012,-1.622
394.795,-1.622
395.435,-1.622
396.218,-1.622
396.859,-1.622
397.641,-1.622
398.282,-1.622
399.065,-1.622
399.705,-1.621
400.488,-1.622
401.128,-1.622
401.912,-1.621
402.551,-1.621
403.334,-1.621
403.975,-1.621
404.757,-1.621
405.398,-1.621
406.182,-1.621
406.821,-1.621
407.605,-1.621
408.245,-1.620
409.027,-1.620
409.668,-1.620
410.451,-1.620
411.092,-1.620
411.874,-1.620
412.515,-1.620
413.298,-1.618
413.938,-1.619
414.722,-1.618
415.362,-1.618
416.145,-1.617
416.786,-1.616
417.568,-1.615
418.209,-1.615
418.991,-1.613
419.632,-1.613
420.415,-1.612
421.055,-1.611
421.838,-1.609
422.478,-1.610
423.261,-1.607
423.901,-1.606
424.685,-1.605
425.326,-1.604
426.108,-1.601
426.748,-1.600
427.531,-1.598
428.172,-1.596
428.800,-1.595
429.417,-1.593
430.058,-1.591
430.698,-1.589
431.315,-1.587
431.955,-1.585
432.596,-1.583
433.212,-1.580
433.853,-1.578
434.494,-1.577
435.110,-1.573
435.750,-1.571
436.392,-1.570
437.009,-1.566
437.649,-1.564
438.290,-1.562
438.906,-1.558
439.546,-1.556
440.187,-1.554
440.804,-1.550
441.445,-1.548
442.085,-1.546
442.701,-1.541
443.342,-1.539
443.982,-1.537
444.600,-1.531
445.240,-1.530
445.881,-1.528
446.497,-1.522
447.138,-1.520
447.778,-1.518
448.395,-1.512
449.035,-1.510
449.676,-1.507
450.293,-1.502
450.933,-1.499
451.574,-1.497
452.190,-1.492
452.831,-1.488
453.471,-1.486
454.088,-1.481
454.728,-1.478
455.369,-1.475
455.986,-1.469
456.627,-1.467
457.267,-1.464
457.884,-1.457
458.524,-1.455
459.165,-1.452
459.781,-1.447
460.421,-1.443
461.062,-1.440
461.679,-1.435
462.320,-1.432
462.961,-1.429
463.577,-1.422
464.218,-1.419
464.858,-1.417
465.475,-1.411
466.116,-1.407
466.755,-1.404
467.372,-1.398
468.013,-1.395
468.654,-1.392
469.270,-1.385
469.911,-1.382
470.551,-1.378
471.168,-1.373
471.808,-1.369
472.449,-1.366
473.066,-1.359
473.706,-1.356
474.347,-1.353
474.963,-1.347
475.604,-1.344
476.245,-1.340
476.862,-1.333
477.501,-1.330
478.142,-1.326
478.759,-1.320
479.399,-1.316
480.040,-1.313
480.657,-1.307
481.297,-1.303
481.938,-1.299
482.554,-1.293
483.195,-1.289
483.836,-1.286
484.452,-1.279
485.093,-1.276
485.733,-1.272
486.350,-1.265
486.990,-1.262
487.631,-1.258
488.248,-1.251
488.889,-1.248
489.529,-1.245
490.146,-1.237
490.786,-1.234
491.427,-1.230
492.043,-1.223
492.684,-1.220
493.324,-1.217
493.941,-1.209
494.581,-1.206
495.222,-1.203
495.839,-1.195
496.480,-1.191
497.119,-1.188
497.736,-1.181
498.377,-1.178
499.018,-1.173
499.635,-1.166
500.275,-1.162
500.915,-1.158
501.532,-1.152
502.173,-1.148
502.814,-1.145
503.430,-1.138
504.070,-1.135
504.711,-1.131
505.328,-1.124
505.967,-1.120
506.608,-1.117
507.225,-1.109
507.866,-1.106
508.507,-1.102
509.123,-1.094
509.763,-1.091
510.404,-1.087
511.021,-1.080
511.661,-1.076
512.302,-1.073
512.919,-1.065
513.560,-1.061
514.200,-1.058
514.815,-1.050
515.457,-1.047
516.097,-1.043
516.714,-1.035
517.354,-1.032
517.996,-1.029
518.612,-1.020
519.252,-1.016
519.893,-1.012
520.510,-1.005
521.149,-1.001
521.791,-0.997
522.407,-0.990
523.048,-0.986
523.688,-0.982
524.305,-0.975
524.945,-0.971
525.586,-0.967
526.203,-0.960
526.844,-0.956
527.484,-0.952
528.101,-0.945
528.742,-0.941
529.381,-0.937
529.998,-0.929
530.639,-0.926
531.279,-0.922
531.896,-0.915
532.537,-0.911
533.177,-0.908
533.793,-0.900
534.435,-0.896
535.075,-0.893
535.692,-0.886
536.331,-0.882
536.973,-0.878
537.589,-0.869
538.230,-0.867
538.870,-0.863
539.486,-0.855
540.127,-0.852
540.768,-0.848
541.385,-0.840
542.025,-0.835
542.665,-0.832
543.282,-0.825
543.923,-0.821
544.563,-0.817
545.180,-0.810
545.821,-0.805
546.461,-0.802
547.079,-0.795
547.719,-0.791
548.359,-0.787
548.976,-0.779
549.617,-0.775
550.257,-0.771
550.873,-0.763
551.514,-0.760
552.154,-0.756
552.772,-0.748
553.412,-0.745
554.052,-0.741
554.669,-0.734
555.310,-0.730
555.951,-0.726
556.566,-0.719
557.207,-0.715
557.847,-0.711
558.464,-0.704
559.104,-0.700
559.745,-0.696
560.362,-0.688
561.003,-0.684
561.644,-0.681
562.260,-0.673
562.900,-0.669
563.541,-0.665
564.158,-0.658
564.798,-0.654
565.438,-0.649
566.056,-0.643
566.696,-0.638
567.337,-0.635
567.953,-0.627
568.594,-0.623
569.234,-0.620
569.851,-0.612
570.492,-0.608
571.132,-0.604
571.749,-0.597
572.390,-0.594
573.029,-0.590
573.646,-0.582
574.287,-0.579
574.928,-0.575
575.545,-0.566
576.184,-0.562
576.825,-0.558
577.442,-0.551
578.083,-0.548
578.722,-0.544
579.340,-0.536
579.981,-0.532
580.621,-0.528
581.237,-0.520
581.878,-0.516
582.519,-0.512
583.135,-0.505
583.776,-0.501
584.415,-0.497
585.033,-0.490
585.674,-0.487
586.314,-0.483
586.930,-0.475
587.571,-0.471
588.212,-0.468
588.828,-0.460
589.468,-0.456
590.110,-0.453
590.726,-0.446
591.366,-0.442
592.007,-0.437
592.623,-0.430
593.264,-0.427
593.905,-0.423
594.521,-0.416
595.163,-0.413
595.803,-0.410
596.419,-0.402
597.060,-0.399
597.701,-0.396
598.317,-0.389
598.957,-0.386
599.598,-0.383
600.215,-0.377
600.855,-0.373
601.495,-0.371
602.113,-0.365
602.753,-0.362
603.394,-0.359
604.010,-0.353
604.651,-0.350
605.291,-0.347
605.908,-0.342
606.548,-0.340
607.189,-0.338
607.806,-0.333
608.446,-0.330
609.086,-0.327
609.703,-0.323
610.344,-0.321
610.985,-0.318
611.602,-0.314
612.242,-0.313
612.882,-0.310
613.499,-0.306
614.141,-0.304
614.780,-0.302
615.396,-0.299
616.037,-0.297
616.677,-0.295
617.294,-0.292
617.935,-0.290
618.575,-0.288
619.193,-0.285
619.832,-0.283
620.473,-0.281
621.090,-0.279
621.731,-0.277
622.372,-0.275
622.987,-0.273
623.628,-0.271
624.269,-0.270
624.885,-0.268
625.526,-0.266
626.166,-0.265
626.783,-0.263
627.424,-0.261
628.064,-0.260
628.680,-0.258
629.321,-0.256
629.962,-0.256
630.578,-0.254
631.219,-0.252
631.860,-0.251
632.477,-0.249
633.116,-0.248
633.757,-0.248
634.373,-0.245
635.015,-0.244
635.656,-0.243
636.272,-0.241
636.912,-0.240
637.553,-0.240
638.169,-0.238
638.810,-0.237
639.450,-0.237
640.067,-0.235
640.708,-0.235
641.348,-0.233
641.965,-0.231
642.606,-0.231
643.246,-0.230
643.862,-0.228
644.503,-0.228
645.144,-0.227
645.761,-0.226
646.401,-0.225
647.041,-0.225
647.659,-0.224
648.299,-0.223
648.940,-0.222
649.556,-0.220
650.196,-0.220
650.837,-0.220
651.453,-0.219
652.094,-0.218
652.734,-0.217
653.351,-0.216
653.992,-0.216
654.631,-0.216
655.249,-0.214
655.889,-0.214
656.530,-0.213
657.147,-0.212
657.787,-0.212
658.428,-0.211
659.044,-0.211
659.685,-0.210
660.325,-0.209
660.942,-0.208
661.584,-0.208
662.224,-0.208
662.840,-0.206
663.480,-0.206
664.121,-0.206
664.738,-0.205
665.377,-0.204
666.018,-0.204
666.635,-0.203
667.276,-0.203
667.916,-0.202
668.533,-0.202
669.174,-0.201
669.814,-0.201
670.431,-0.201
671.071,-0.200
671.712,-0.199
672.329,-0.198
672.969,-0.198
673.609,-0.198
674.227,-0.197
674.867,-0.197
675.508,-0.197
676.123,-0.196
676.764,-0.196
677.405,-0.195
678.021,-0.195
678.662,-0.194
679.303,-0.194
679.920,-0.193
680.561,-0.193
681.200,-0.193
681.817,-0.193
682.458,-0.192
683.098,-0.192
683.715,-0.191
684.355,-0.191
684.996,-0.191
685.613,-0.190
686.253,-0.190
686.894,-0.189
687.511,-0.189
688.151,-0.189
688.791,-0.189
689.408,-0.188
690.049,-0.188
690.689,-0.187
691.306,-0.187
691.946,-0.187
692.587,-0.186
693.204,-0.186
693.843,-0.186
694.485,-0.186
695.102,-0.185
695.742,-0.185
696.382,-0.185
696.998,-0.184
697.639,-0.184
698.279,-0.184
698.896,-0.183
699.537,-0.183
700.177,-0.183
700.795,-0.183
701.435,-0.183
702.076,-0.182
702.692,-0.182
703.332,-0.182
703.973,-0.182
704.589,-0.180
705.230,-0.181
705.871,-0.181
706.488,-0.181
707.127,-0.180
707.768,-0.180
708.385,-0.180
709.026,-0.180
709.666,-0.179
710.283,-0.179
710.924,-0.179
711.564,-0.178
712.181,-0.179
712.821,-0.178
713.461,-0.178
714.078,-0.178
714.720,-0.177
715.359,-0.177
715.976,-0.177
716.617,-0.177
717.257,-0.177
717.873,-0.176
718.515,-0.177
719.155,-0.176
719.772,-0.176
720.411,-0.176
721.053,-0.175
721.669,-0.175
722.310,-0.175
722.950,-0.175
723.567,-0.174
724.207,-0.174
724.848,-0.174
725.464,-0.174
726.105,-0.174
726.745,-0.174
727.363,-0.174
728.003,-0.173
728.643,-0.173
729.260,-0.173
729.901,-0.173
730.541,-0.173
731.157,-0.173
731.799,-0.173
732.439,-0.172
733.056,-0.172
733.696,-0.172
734.337,-0.171
734.953,-0.172
735.594,-0.171
736.234,-0.172
736.851,-0.171
737.492,-0.171
738.132,-0.170
738.749,-0.171
739.389,-0.170
740.030,-0.171
740.647,-0.170
741.287,-0.170
741.928,-0.170
742.544,-0.170
743.185,-0.169
743.825,-0.169
744.442,-0.169
745.082,-0.170
745.723,-0.169
746.339,-0.169
746.980,-0.169
747.622,-0.168
748.238,-0.168
748.877,-0.169
749.518,-0.168
750.135,-0.168
750.775,-0.168
751.416,-0.169
752.032,-0.168
752.673,-0.168
753.314,-0.167
753.930,-0.167
754.571,-0.168
755.212,-0.167
755.828,-0.167
756.469,-0.166
757.109,-0.167
757.726,-0.167
758.449,-0.166
759.149,-0.166
759.790,-0.167
760.431,-0.166
761.046,-0.166
761.687,-0.166
762.328,-0.166
762.945,-0.166
763.585,-0.166
764.226,-0.166
764.843,-0.166
765.483,-0.165


