room_temperature(K),290.15
water_volume(mL),500.0
solute_molarmass(g/mol),74.551
solute_mass(g),3.0175
R1(Omega),9.54
R2(Omega),9.55
t1(s),416.625
t2(s),484.954
current(A),1.43
time(s),Delta_T(K)
0.352,0.003
0.992,0.002
1.776,0.003
2.415,0.003
3.198,0.003
3.838,0.003
4.621,0.004
5.261,0.003
6.045,0.003
6.685,0.003
7.468,0.004
8.108,0.004
8.890,0.003
9.531,0.004
10.314,0.004
10.954,0.005
11.737,0.004
12.377,0.004
13.160,0.004
13.800,0.003
14.583,0.005
15.223,0.005
16.006,0.005
16.647,0.005
17.429,0.005
18.069,0.005
18.853,0.005
19.493,0.006
20.276,0.006
20.916,0.006
21.699,0.006
22.339,0.006
23.122,0.006
23.761,0.006
24.545,0.006
25.185,0.007
25.968,0.006
26.608,0.006
27.391,0.007
28.032,0.007
28.814,0.006
29.455,0.006
30.237,0.007
30.878,0.006
31.661,0.008
32.301,0.008
33.085,0.008
33.724,0.008
34.507,0.007
35.147,0.008
35.930,0.008
36.570,0.007
37.352,0.008
37.993,0.008
38.776,0.009
39.417,0.008
40.199,0.008
40.840,0.008
41.623,0.009
42.263,0.008
43.046,0.009
43.686,0.009
44.469,0.008
45.109,0.009
45.892,0.010
46.531,0.010
47.316,0.010
47.955,0.010
48.737,0.009
49.378,0.010
50.161,0.010
50.801,0.010
51.585,0.010
52.224,0.010
53.007,0.010
53.647,0.010
54.431,0.010
55.070,0.011
55.854,0.010
56.493,0.011
57.277,0.011
57.917,0.010
58.699,0.011
59.341,0.011
60.123,0.011
60.763,0.011
61.546,0.011
62.187,0.011
62.969,0.011
63.610,0.012
64.392,0.012
65.033,0.011
65.816,0.012
66.456,0.012
67.239,0.012
67.878,0.012
68.661,0.012
69.302,0.011
70.085,0.011
70.725,0.012
71.508,0.013
72.149,0.013
72.931,0.013
73.572,0.013
74.354,0.013
74.995,0.013
75.777,0.013
76.417,0.013
77.200,0.013
77.841,0.013
78.623,0.014
79.264,0.014
80.046,0.013
80.687,0.014
81.470,0.014
82.110,0.014
82.892,0.014
83.533,0.014
84.316,0.014
84.957,0.014
85.739,0.014
86.380,0.014
87.163,0.014
87.802,0.015
88.585,0.014
89.225,0.014
90.008,0.015
90.649,0.015
91.431,0.015
92.072,0.015
92.854,0.015
93.496,0.015
94.278,0.015
94.918,0.015
95.700,0.015
96.341,0.015
97.124,0.016
97.764,0.015
98.547,0.016
99.187,0.016
99.971,0.016
100.610,0.016
101.394,0.016
102.033,0.016
102.816,0.016
103.457,0.016
104.239,0.016
104.880,0.017
105.663,0.017
106.303,0.017
107.086,0.017
107.727,0.017
108.509,0.017
109.150,0.017
109.932,0.017
110.572,0.017
111.354,0.017
111.995,0.017
112.778,0.017
113.419,0.017
114.202,0.017
114.841,0.017
115.624,0.018
116.265,0.018
117.047,0.018
117.688,0.019
118.471,0.018
119.112,0.017
119.894,0.018
120.534,0.018
121.317,0.019
121.957,0.018
122.740,0.018
123.380,0.018
124.163,0.019
124.804,0.018
125.586,0.019
126.226,0.018
127.009,0.019
127.650,0.019
128.433,0.018
129.073,0.019
129.857,0.018
130.496,0.020
131.279,0.020
131.920,0.019
132.702,0.019
133.342,0.019
134.126,0.019
134.765,0.019
135.547,0.020
136.189,0.020
136.971,0.020
137.612,0.019
138.394,0.020
139.035,0.020
139.817,0.020
140.458,0.021
141.241,0.020
141.881,0.020
142.663,0.020
143.305,0.021
144.088,0.021
144.726,0.021
145.511,0.021
146.150,0.021
146.933,0.021
147.573,0.021
148.355,0.021
148.997,0.021
149.779,0.021
150.420,0.021
151.202,0.021
151.843,0.022
152.625,0.022
153.267,0.022
154.049,0.021
154.690,0.022
155.472,0.022
156.112,0.021
156.896,0.022
157.535,0.022
158.318,0.022
158.958,0.022
159.742,0.022
160.382,0.022
161.164,0.022
161.805,0.022
162.588,0.023
163.228,0.023
164.011,0.022
164.651,0.023
165.434,0.022
166.074,0.023
166.858,0.023
167.498,0.023
168.280,0.024
168.920,0.024
169.704,0.023
170.343,0.023
171.126,0.024
171.767,0.024
172.549,0.023
173.190,0.024
173.973,0.024
174.612,0.024
175.395,0.024
176.036,0.024
176.820,0.024
177.459,0.024
178.242,0.024
178.883,0.025
179.666,0.024
180.306,0.025
181.088,0.025
181.729,0.024
182.511,0.025
183.151,0.024
183.935,0.025
184.574,0.025
185.358,0.026
185.998,0.025
186.780,0.025
187.421,0.025
188.204,0.025
188.844,0.025
189.627,0.025
190.267,0.026
191.051,0.025
191.691,0.026
192.473,0.026
193.114,0.025
193.897,0.026
194.537,0.026
195.320,0.026
195.959,0.026
196.742,0.027
197.383,0.026
198.166,0.026
198.806,0.026
199.589,0.027
200.230,0.025
201.012,0.013
201.653,0.005
202.435,-0.008
203.075,-0.016
203.858,-0.032
204.499,-0.041
205.282,-0.056
205.922,-0.063
206.704,-0.079
207.345,-0.087
208.128,-0.102
208.768,-0.109
209.550,-0.125
210.191,-0.133
210.974,-0.146
211.614,-0.153
212.397,-0.168
213.037,-0.174
213.820,-0.187
214.461,-0.193
215.243,-0.205
215.884,-0.211
216.667,-0.222
217.307,-0.227
218.090,-0.237
218.730,-0.242
219.513,-0.252
220.153,-0.256
220.936,-0.265
221.576,-0.269
222.359,-0.277
222.999,-0.281
223.782,-0.288
224.423,-0.292
225.204,-0.299
225.846,-0.303
226.628,-0.309
227.268,-0.313
228.052,-0.320
228.691,-0.322
229.475,-0.329
230.115,-0.332
230.898,-0.338
231.537,-0.341
232.320,-0.346
232.961,-0.349
233.744,-0.355
234.384,-0.357
235.167,-0.362
235.807,-0.365
236.590,-0.370
237.230,-0.371
238.013,-0.377
238.654,-0.378
239.437,-0.382
240.077,-0.385
240.860,-0.388
241.500,-0.391
242.283,-0.394
242.923,-0.396
243.707,-0.400
244.346,-0.402
245.129,-0.404
245.769,-0.405
246.552,-0.408
247.193,-0.410
247.975,-0.413
248.615,-0.414
249.398,-0.416
250.039,-0.418
250.821,-0.420
251.462,-0.421
252.244,-0.423
252.884,-0.424
253.668,-0.425
254.308,-0.426
255.091,-0.428
255.730,-0.429
256.514,-0.430
257.154,-0.432
257.938,-0.432
258.577,-0.434
259.359,-0.435
260.000,-0.435
260.783,-0.436
261.424,-0.437
262.206,-0.438
262.846,-0.438
263.629,-0.439
264.270,-0.439
265.053,-0.440
265.693,-0.440
266.476,-0.441
267.117,-0.441
267.899,-0.442
268.539,-0.441
269.323,-0.442
269.962,-0.443
270.745,-0.442
271.385,-0.443
272.168,-0.443
272.809,-0.443
273.591,-0.443
274.232,-0.443
275.014,-0.443
275.655,-0.444
276.438,-0.444
277.078,-0.444
277.861,-0.444
278.501,-0.443
279.284,-0.444
279.925,-0.444
280.708,-0.444
281.346,-0.444
282.130,-0.444
282.770,-0.444
283.553,-0.444
284.193,-0.444
284.976,-0.443
285.617,-0.444
286.399,-0.444
287.040,-0.444
287.823,-0.444
288.464,-0.444
289.245,-0.444
289.886,-0.444
290.669,-0.444
291.310,-0.444
292.092,-0.444
292.733,-0.444
293.516,-0.443
294.155,-0.443
294.938,-0.443
295.578,-0.443
296.361,-0.443
297.002,-0.443
297.784,-0.443
298.424,-0.443
299.207,-0.443
299.848,-0.442
300.631,-0.443
301.271,-0.443
302.054,-0.442
302.694,-0.443
303.477,-0.442
304.117,-0.442
304.900,-0.442
305.541,-0.442
306.324,-0.442
306.963,-0.442
307.747,-0.442
308.386,-0.442
309.169,-0.441
309.810,-0.442
310.592,-0.441
311.233,-0.441
312.015,-0.441
312.656,-0.441
313.438,-0.441
314.079,-0.441
314.863,-0.441
315.502,-0.441
316.285,-0.441
316.925,-0.441
317.709,-0.441
318.349,-0.441
319.132,-0.440
319.772,-0.440
320.555,-0.441
321.194,-0.440
321.978,-0.440
322.618,-0.440
323.401,-0.440
324.040,-0.440
324.823,-0.440
325.464,-0.440
326.247,-0.440
326.887,-0.439
327.670,-0.440
328.311,-0.439
329.093,-0.439
329.734,-0.439
330.517,-0.439
331.157,-0.438
331.940,-0.439
332.580,-0.439
333.363,-0.439
334.002,-0.438
334.786,-0.439
335.426,-0.438
336.208,-0.438
336.849,-0.438
337.632,-0.438
338.273,-0.438
339.055,-0.438
339.695,-0.438
340.478,-0.438
341.119,-0.438
341.901,-0.437
342.541,-0.437
343.325,-0.438
343.965,-0.438
344.748,-0.437
345.388,-0.437
346.171,-0.437
346.811,-0.437
347.594,-0.436
348.234,-0.437
349.017,-0.436
349.657,-0.437
350.439,-0.437
351.081,-0.436
351.864,-0.436
352.503,-0.436
353.286,-0.437
353.927,-0.436
354.709,-0.437
355.350,-0.436
356.133,-0.436
356.773,-0.436
357.556,-0.435
358.196,-0.435
358.979,-0.435
359.619,-0.436
360.402,-0.436
361.042,-0.435
361.825,-0.435
362.465,-0.435
363.248,-0.434
363.888,-0.435
364.671,-0.435
365.312,-0.435
366.095,-0.435
366.735,-0.435
367.517,-0.435
368.158,-0.434
368.941,-0.435
369.582,-0.434
370.364,-0.434
371.005,-0.434
371.787,-0.434
372.427,-0.433
373.210,-0.434
373.851,-0.434
374.633,-0.434
375.274,-0.433
376.056,-0.434
376.696,-0.433
377.480,-0.433
378.120,-0.433
378.903,-0.433
379.543,-0.433
380.325,-0.434
380.966,-0.433
381.749,-0.432
382.389,-0.432
383.172,-0.433
383.812,-0.433
384.596,-0.432
385.236,-0.433
386.018,-0.432
386.658,-0.432
387.442,-0.432
388.081,-0.432
388.865,-0.432
389.504,-0.432
390.288,-0.432
390.928,-0.431
391.710,-0.431
392.352,-0.431
393.133,-0.431
393.775,-0.431
394.558,-0.431
395.198,-0.431
395.980,-0.431
396.620,-0.432
397.404,-0.431
398.044,-0.432
398.826,-0.431
399.468,-0.431
400.250,-0.430
400.889,-0.431
401.673,-0.430
402.312,-0.431
403.096,-0.430
403.737,-0.430
404.518,-0.430
405.159,-0.430
405.943,-0.429
406.583,-0.429
407.366,-0.430
408.006,-0.430
408.789,-0.430
409.429,-0.429
410.212,-0.429
410.853,-0.429
411.635,-0.429
412.276,-0.428
413.058,-0.429
413.697,-0.429
414.481,-0.428
415.121,-0.429
415.904,-0.428
416.545,-0.429
417.327,-0.428
417.968,-0.428
418.750,-0.428
419.391,-0.428
420.173,-0.428
420.814,-0.428
421.597,-0.427
422.237,-0.427
423.020,-0.426
423.661,-0.426
424.443,-0.425
425.084,-0.424
425.866,-0.424
426.507,-0.423
427.290,-0.422
427.930,-0.421
428.712,-0.420
429.353,-0.419
430.135,-0.416
430.776,-0.416
431.558,-0.414
432.199,-0.413
432.981,-0.411
433.622,-0.410
434.405,-0.408
435.046,-0.406
435.828,-0.404
436.469,-0.403
437.252,-0.400
437.892,-0.398
438.675,-0.395
439.315,-0.394
440.097,-0.391
440.737,-0.389
441.521,-0.387
442.160,-0.386
442.944,-0.382
443.584,-0.380
444.367,-0.376
445.007,-0.375
445.790,-0.371
446.430,-0.369
447.213,-0.366
447.854,-0.364
448.637,-0.360
449.276,-0.358
450.059,-0.354
450.700,-0.352
451.483,-0.348
452.123,-0.346
452.906,-0.342
453.546,-0.340
454.329,-0.336
454.968,-0.334
455.752,-0.329
456.393,-0.327
457.175,-0.322
457.815,-0.320
458.598,-0.315
459.239,-0.312
460.021,-0.308
460.661,-0.306
461.444,-0.301
462.086,-0.298
462.868,-0.293
463.508,-0.291
464.291,-0.285
464.931,-0.283
465.714,-0.277
466.355,-0.274
467.138,-0.269
467.777,-0.266
468.560,-0.261
469.200,-0.259
469.983,-0.254
470.624,-0.252
471.406,-0.247
472.046,-0.244
472.829,-0.239
473.470,-0.235
474.253,-0.230
474.893,-0.227
475.675,-0.221
476.316,-0.218
477.099,-0.213
477.740,-0.209
478.522,-0.204
479.162,-0.201
479.945,-0.195
480.585,-0.192
481.369,-0.186
482.008,-0.183
482.792,-0.177
483.431,-0.174
484.214,-0.168
484.855,-0.165
485.637,-0.159
486.278,-0.155
487.061,-0.149
487.701,-0.147
488.484,-0.141
489.125,-0.138
489.907,-0.132
490.547,-0.129
491.330,-0.123
491.971,-0.120
492.754,-0.115
493.394,-0.111
494.176,-0.106
494.817,-0.104
495.600,-0.098
496.239,-0.095
497.022,-0.090
497.663,-0.088
498.446,-0.082
499.086,-0.079
499.869,-0.076
500.509,-0.072
501.292,-0.068
501.932,-0.065
502.715,-0.062
503.356,-0.059
504.138,-0.055
504.779,-0.053
505.561,-0.048
506.202,-0.047
506.985,-0.043
507.625,-0.042
508.408,-0.038
509.049,-0.036
509.830,-0.032
510.471,-0.030
511.254,-0.027
511.894,-0.026
512.677,-0.023
513.318,-0.021
514.100,-0.018
514.741,-0.017
515.523,-0.015
516.164,-0.013
516.946,-0.010
517.587,-0.009
518.370,-0.006
519.010,-0.005
519.793,-0.002
520.432,-0.001
521.216,0.001
521.856,0.002
522.640,0.004
523.279,0.006
524.062,0.007
524.703,0.008
525.486,0.010
526.125,0.012
526.909,0.013
527.549,0.015
528.331,0.017
528.972,0.018
529.755,0.019
530.395,0.020
531.178,0.022
531.819,0.022
532.602,0.024
533.241,0.026
534.024,0.028
534.664,0.028
535.447,0.029
536.088,0.030
536.859,0.032
537.498,0.032
538.282,0.034
538.921,0.034
539.705,0.036
540.344,0.036
541.127,0.037
541.769,0.038
542.551,0.040
543.191,0.040
543.974,0.041
544.615,0.042
545.397,0.043
546.038,0.044
546.821,0.045
547.461,0.046
548.243,0.046
548.884,0.047
549.666,0.048
550.307,0.049
551.090,0.049
551.730,0.050
552.513,0.052
553.153,0.052
553.936,0.053
554.576,0.053
555.359,0.054
555.999,0.055
556.783,0.055
557.423,0.056
558.205,0.057
558.846,0.057
559.628,0.058
560.269,0.058
561.052,0.059
561.692,0.060
562.475,0.062
563.116,0.061
563.898,0.062
564.538,0.062
565.321,0.063
565.961,0.063
566.745,0.064
567.385,0.064
568.168,0.065
568.807,0.065
569.590,0.066
570.230,0.066
571.013,0.067
571.654,0.067
572.437,0.067
573.077,0.068
573.860,0.069
574.500,0.069
575.283,0.070
575.923,0.070
576.706,0.071
577.347,0.071
578.130,0.072
578.770,0.072
579.553,0.072
580.193,0.073
580.976,0.074
581.616,0.074
582.398,0.075
583.039,0.074
583.821,0.075
584.462,0.076
585.245,0.076
585.886,0.076
586.668,0.077
587.309,0.077
588.091,0.078
588.732,0.078
589.515,0.079
590.154,0.079
590.938,0.079
591.578,0.079
592.361,0.080
593.002,0.081
593.784,0.081
594.424,0.080
595.207,0.081
595.847,0.081
596.629,0.082
597.270,0.082
598.052,0.083
598.694,0.083
599.476,0.083
600.116,0.084
600.900,0.084
601.540,0.084
602.322,0.085
602.963,0.085
603.746,0.086
604.387,0.086
605.169,0.086
605.809,0.086
606.592,0.087
607.233,0.086
608.015,0.087
608.655,0.088
609.439,0.088
610.079,0.088
610.862,0.089
611.502,0.089
612.284,0.089
612.925,0.089
613.707,0.090
614.348,0.090
615.131,0.090
615.771,0.090
616.553,0.091
617.194,0.090
617.976,0.091
618.618,0.091
619.400,0.092
620.041,0.091
620.824,0.092
621.463,0.092
622.247,0.093
622.887,0.094
623.670,0.093
624.310,0.093
625.093,0.094
625.733,0.095
626.516,0.095
627.156,0.094
627.939,0.095
628.579,0.095
629.362,0.095
630.003,0.096
630.785,0.096
631.425,0.096
632.208,0.096
632.849,0.097
633.632,0.097
634.273,0.097
635.054,0.097
635.695,0.097
636.478,0.098
637.117,0.098
637.900,0.098
638.541,0.098
639.323,0.099
639.964,0.098
640.747,0.099
641.387,0.099
642.170,0.099
642.811,0.099
643.593,0.100
644.233,0.100
645.016,0.100
645.656,0.100
646.439,0.100
647.081,0.101
647.863,0.101
648.503,0.101
649.285,0.101
649.926,0.101
650.710,0.102
651.350,0.103
652.132,0.103
652.772,0.102
653.555,0.102
654.195,0.103
654.978,0.103
655.618,0.103
656.401,0.104
657.042,0.103
657.825,0.104
658.465,0.104
659.248,0.104
659.889,0.105
660.671,0.105
661.310,0.105
662.094,0.105
662.735,0.105
663.518,0.105
664.158,0.105
664.940,0.105
665.581,0.106
666.364,0.106
667.003,0.106
667.786,0.106
668.427,0.107
669.210,0.107
669.851,0.107
670.633,0.107
671.273,0.107
672.056,0.107
672.696,0.108
673.479,0.108
674.119,0.108
674.903,0.108
675.542,0.108
676.326,0.109
676.965,0.109
677.748,0.109
678.388,0.110
679.171,0.109
679.812,0.109
680.594,0.110
681.235,0.110
682.018,0.110
682.658,0.110
683.441,0.110
684.082,0.110
684.864,0.111
685.505,0.110
686.287,0.111
686.927,0.111
687.711,0.111
688.350,0.111
689.134,0.112
689.774,0.112
690.556,0.112
691.197,0.112
691.980,0.112
692.620,0.112
693.403,0.112
694.043,0.112
694.826,0.112
695.466,0.113
696.249,0.113
696.890,0.113
697.672,0.113
698.313,0.114
699.095,0.113
699.735,0.114
700.518,0.114
701.159,0.113
701.942,0.115
702.582,0.115
703.365,0.114
704.005,0.115
704.787,0.115
705.428,0.116
706.211,0.116
706.851,0.116
707.634,0.116
708.275,0.116
709.057,0.117
709.698,0.117
710.480,0.117
711.122,0.117
711.903,0.117
712.544,0.118
713.327,0.118
713.967,0.118
714.749,0.119
715.390,0.119
716.172,0.119
716.813,0.119
717.596,0.120
718.236,0.119
719.019,0.120
719.660,0.120
720.442,0.120
721.082,0.121
721.865,0.121
722.506,0.122
723.289,0.121
723.928,0.121
724.712,0.122
725.352,0.122
726.134,0.121
726.775,0.122
727.557,0.122
728.198,0.122
728.981,0.123
729.621,0.123
730.404,0.123
731.045,0.123
731.827,0.123
732.468,0.124
733.251,0.123
733.891,0.123
734.674,0.124
735.314,0.124
736.097,0.124
736.737,0.124
737.520,0.125
738.159,0.125
738.943,0.125
739.583,0.125
740.365,0.125
741.006,0.125
741.788,0.126
742.429,0.125
743.212,0.125
743.852,0.126
744.635,0.126
745.276,0.126
746.058,0.126
746.699,0.127
747.482,0.126
748.122,0.127
748.904,0.127
749.545,0.127
750.328,0.128
750.968,0.128
751.751,0.127
752.391,0.128
753.173,0.128
753.814,0.128
754.597,0.128
755.238,0.128
756.020,0.128
756.661,0.129
757.443,0.128
758.084,0.129
758.866,0.128
759.508,0.129
760.289,0.128
760.930,0.129
761.713,0.130
762.353,0.130
763.136,0.129
763.777,0.130
764.560,0.130
765.200,0.130
765.981,0.130
766.622,0.130
767.405,0.130
768.046,0.130
768.828,0.131
769.469,0.131
770.252,0.130
770.892,0.131
771.675,0.131

