room_temperature(K),290.15
water_volume(mL),500.0
solute_molarmass(g/mol),74.551
solute_mass(g),2.9935
R1(Omega),9.52
R2(Omega),9.5
t1(s),419.142
t2(s),496.349
current(A),1.43
time(s),Delta_T(K)
0.243,0.001
1.024,0.001
1.664,0.001
2.447,0.001
3.088,0.001
3.870,0.001
4.512,0.002
5.295,0.002
5.934,0.002
6.718,0.002
7.358,0.002
8.140,0.002
8.781,0.002
9.564,0.003
10.203,0.003
10.987,0.003
11.627,0.003
12.410,0.003
13.051,0.003
13.833,0.003
14.473,0.003
15.256,0.003
15.897,0.003
16.679,0.003
17.319,0.003
18.102,0.003
18.742,0.003
19.525,0.003
20.166,0.003
20.949,0.004
21.589,0.004
22.372,0.004
23.012,0.004
23.794,0.004
24.435,0.004
25.217,0.004
25.859,0.004
26.640,0.004
27.281,0.005
28.064,0.005
28.705,0.006
29.488,0.005
30.128,0.005
30.910,0.005
31.551,0.006
32.334,0.005
32.974,0.005
33.757,0.006
34.397,0.005
35.180,0.006
35.820,0.006
36.603,0.006
37.243,0.006
38.025,0.006
38.666,0.006
39.449,0.006
40.089,0.007
40.872,0.006
41.512,0.006
42.295,0.006
42.937,0.006
43.718,0.007
44.359,0.007
45.142,0.007
45.782,0.007
46.564,0.007
47.205,0.007
47.987,0.007
48.628,0.007
49.411,0.007
50.051,0.008
50.834,0.008
51.474,0.008
52.257,0.008
52.898,0.008
53.681,0.008
54.321,0.008
55.103,0.009
55.744,0.008
56.527,0.009
57.167,0.008
57.949,0.009
58.590,0.008
59.372,0.009
60.014,0.009
60.796,0.010
61.436,0.009
62.219,0.009
62.860,0.009
63.642,0.009
64.283,0.009
65.065,0.010
65.706,0.010
66.489,0.010
67.128,0.010
67.912,0.010
68.552,0.010
69.334,0.010
69.975,0.010
70.757,0.010
71.398,0.010
72.181,0.010
72.821,0.011
73.605,0.010
74.244,0.011
75.028,0.011
75.668,0.011
76.450,0.011
77.091,0.011
77.874,0.011
78.514,0.012
79.296,0.011
79.936,0.011
80.720,0.012
81.360,0.012
82.143,0.011
82.783,0.011
83.566,0.012
84.206,0.012
84.989,0.013
85.629,0.013
86.412,0.012
87.054,0.013
87.836,0.012
88.475,0.012
89.259,0.013
89.898,0.013
90.681,0.013
91.321,0.013
92.105,0.013
92.744,0.013
93.528,0.012
94.168,0.012
94.950,0.013
95.591,0.014
96.374,0.013
97.015,0.013
97.797,0.015
98.437,0.014
99.220,0.014
99.860,0.014
100.644,0.014
101.283,0.014
102.066,0.014
102.706,0.014
103.489,0.014
104.129,0.015
104.912,0.015
105.552,0.015
106.336,0.015
106.976,0.015
107.759,0.015
108.399,0.014
109.182,0.015
109.823,0.015
110.606,0.015
111.245,0.015
112.027,0.015
112.669,0.015
113.451,0.016
114.091,0.016
114.874,0.016
115.515,0.016
116.297,0.016
116.937,0.016
117.720,0.016
118.361,0.016
119.143,0.016
119.783,0.016
120.567,0.016
121.207,0.017
121.990,0.016
122.630,0.017
123.413,0.017
124.054,0.017
124.836,0.017
125.476,0.017
126.259,0.017
126.899,0.017
127.683,0.017
128.323,0.017
129.106,0.017
129.745,0.017
130.528,0.018
131.169,0.018
131.951,0.018
132.592,0.018
133.375,0.018
134.015,0.017
134.797,0.018
135.438,0.018
136.221,0.018
136.862,0.018
137.644,0.019
138.285,0.018
139.068,0.019
139.708,0.019
140.491,0.018
141.130,0.019
141.913,0.019
142.554,0.019
143.337,0.019
143.977,0.019
144.760,0.019
145.400,0.020
146.182,0.017
146.824,0.013
147.606,0.001
148.247,-0.005
149.029,-0.020
149.669,-0.028
150.452,-0.043
151.092,-0.052
151.875,-0.069
152.516,-0.078
153.298,-0.095
153.951,-0.104
154.733,-0.120
155.373,-0.128
156.157,-0.144
156.797,-0.151
157.580,-0.166
158.220,-0.174
159.002,-0.188
159.643,-0.196
160.426,-0.210
161.066,-0.217
161.849,-0.229
162.489,-0.235
163.272,-0.247
163.911,-0.253
164.696,-0.264
165.335,-0.270
166.119,-0.280
166.758,-0.286
167.541,-0.296
168.181,-0.301
168.964,-0.310
169.605,-0.314
170.387,-0.322
171.028,-0.326
171.810,-0.334
172.451,-0.338
173.234,-0.346
173.874,-0.349
174.657,-0.355
175.297,-0.358
176.080,-0.365
176.720,-0.368
177.503,-0.373
178.144,-0.376
178.926,-0.381
179.566,-0.383
180.349,-0.387
180.990,-0.390
181.773,-0.393
182.413,-0.395
183.195,-0.399
183.837,-0.400
184.619,-0.404
185.259,-0.406
186.042,-0.408
186.682,-0.410
187.464,-0.413
188.104,-0.414
188.888,-0.416
189.528,-0.418
190.311,-0.420
190.952,-0.421
191.734,-0.423
192.375,-0.424
193.157,-0.426
193.798,-0.426
194.580,-0.428
195.220,-0.429
196.004,-0.430
196.644,-0.431
197.426,-0.432
198.067,-0.432
198.850,-0.433
199.490,-0.434
200.273,-0.435
200.914,-0.436
201.696,-0.436
202.337,-0.437
203.119,-0.438
203.759,-0.438
204.542,-0.439
205.182,-0.439
205.966,-0.439
206.605,-0.439
207.388,-0.440
208.029,-0.440
208.812,-0.440
209.452,-0.440
210.235,-0.441
210.875,-0.442
211.658,-0.441
212.298,-0.441
213.081,-0.442
213.721,-0.442
214.504,-0.442
215.144,-0.441
215.927,-0.441
216.567,-0.441
217.350,-0.442
217.990,-0.441
218.773,-0.442
219.414,-0.442
220.197,-0.442
220.836,-0.442
221.619,-0.441
222.260,-0.442
223.042,-0.442
223.684,-0.442
224.466,-0.441
225.106,-0.441
225.889,-0.441
226.528,-0.442
227.312,-0.441
227.953,-0.441
228.736,-0.441
229.376,-0.441
230.159,-0.441
230.798,-0.440
231.581,-0.441
232.222,-0.441
233.004,-0.441
233.644,-0.441
234.428,-0.440
235.067,-0.440
235.850,-0.441
236.490,-0.441
237.273,-0.440
237.914,-0.440
238.697,-0.440
239.337,-0.440
240.120,-0.441
240.761,-0.440
241.543,-0.440
242.184,-0.440
242.966,-0.440
243.606,-0.440
244.390,-0.440
245.029,-0.440
245.812,-0.439
246.452,-0.439
247.235,-0.439
247.875,-0.439
248.658,-0.439
249.298,-0.439
250.081,-0.439
250.722,-0.439
251.505,-0.439
252.145,-0.438
252.928,-0.439
253.568,-0.439
254.351,-0.438
254.991,-0.438
255.774,-0.438
256.414,-0.438
257.197,-0.438
257.837,-0.438
258.620,-0.438
259.261,-0.438
260.043,-0.438
260.684,-0.438
261.466,-0.437
262.108,-0.438
262.890,-0.437
263.529,-0.437
264.313,-0.437
264.953,-0.437
265.736,-0.436
266.376,-0.436
267.158,-0.437
267.799,-0.437
268.582,-0.436
269.222,-0.437
270.005,-0.437
270.645,-0.436
271.428,-0.435
272.069,-0.435
272.852,-0.436
273.492,-0.436
274.274,-0.436
274.915,-0.436
275.698,-0.435
276.338,-0.435
277.121,-0.436
277.761,-0.435
278.544,-0.435
279.184,-0.435
279.967,-0.435
280.608,-0.435
281.390,-0.435
282.031,-0.435
282.813,-0.434
283.453,-0.435
284.237,-0.434
284.876,-0.435
285.659,-0.435
286.299,-0.434
287.083,-0.434
287.723,-0.434
288.505,-0.434
289.146,-0.434
289.929,-0.433
290.569,-0.433
291.352,-0.433
291.993,-0.434
292.776,-0.433
293.415,-0.433
294.198,-0.433
294.839,-0.433
295.621,-0.433
296.261,-0.433
297.044,-0.433
297.685,-0.432
298.467,-0.432
299.108,-0.433
299.890,-0.432
300.531,-0.432
301.314,-0.432
301.954,-0.432
302.737,-0.432
303.377,-0.432
304.160,-0.431
304.801,-0.432
305.583,-0.431
306.223,-0.431
307.006,-0.431
307.646,-0.431
308.429,-0.432
309.070,-0.431
309.852,-0.431
310.493,-0.431
311.275,-0.431
311.916,-0.431
312.699,-0.431
313.338,-0.431
314.122,-0.431
314.762,-0.431
315.545,-0.430
316.184,-0.430
316.967,-0.430
317.608,-0.430
318.390,-0.430
319.031,-0.430
319.814,-0.430
320.455,-0.430
321.237,-0.430
321.878,-0.430
322.661,-0.429
323.300,-0.429
324.083,-0.430
324.724,-0.429
325.506,-0.429
326.146,-0.429
326.929,-0.429
327.570,-0.429
328.353,-0.429
328.994,-0.429
329.775,-0.429
330.416,-0.428
331.198,-0.428
331.839,-0.428
332.622,-0.428
333.262,-0.428
334.045,-0.428
334.686,-0.428
335.468,-0.428
336.109,-0.428
336.891,-0.428
337.532,-0.427
338.314,-0.428
338.955,-0.427
339.738,-0.427
340.378,-0.427
341.161,-0.427
341.801,-0.427
342.584,-0.427
343.224,-0.427
344.007,-0.427
344.647,-0.427
345.429,-0.426
346.071,-0.427
346.853,-0.427
347.493,-0.426
348.276,-0.426
348.917,-0.426
349.699,-0.426
350.340,-0.426
351.123,-0.426
351.762,-0.426
352.546,-0.426
353.185,-0.425
353.968,-0.425
354.609,-0.426
355.392,-0.425
356.032,-0.425
356.815,-0.425
357.455,-0.425
358.237,-0.426
358.878,-0.425
359.661,-0.425
360.301,-0.425
361.085,-0.425
361.724,-0.424
362.508,-0.425
363.148,-0.425
363.929,-0.424
364.570,-0.424
365.353,-0.425
365.994,-0.425
366.777,-0.424
367.417,-0.424
368.199,-0.424
368.841,-0.423
369.623,-0.424
370.264,-0.424
371.046,-0.423
371.686,-0.424
372.468,-0.423
373.109,-0.423
373.892,-0.424
374.533,-0.423
375.315,-0.423
375.955,-0.423
376.739,-0.423
377.378,-0.423
378.161,-0.423
378.802,-0.422
379.584,-0.422
380.225,-0.422
381.008,-0.423
381.648,-0.422
382.430,-0.422
383.071,-0.422
383.854,-0.422
384.494,-0.421
385.277,-0.422
385.917,-0.422
386.700,-0.422
387.341,-0.421
388.123,-0.421
388.764,-0.421
389.547,-0.421
390.187,-0.421
390.969,-0.421
391.609,-0.421
392.392,-0.420
393.033,-0.421
393.816,-0.421
394.457,-0.421
395.239,-0.421
395.879,-0.421
396.661,-0.420
397.302,-0.420
398.085,-0.420
398.725,-0.420
399.508,-0.419
400.149,-0.420
400.931,-0.419
401.571,-0.419
402.354,-0.420
402.994,-0.420
403.777,-0.419
404.417,-0.419
405.200,-0.419
405.842,-0.419
406.624,-0.419
407.264,-0.418
408.047,-0.419
408.687,-0.418
409.470,-0.419
410.110,-0.418
410.892,-0.418
411.533,-0.418
412.316,-0.418
412.956,-0.418
413.740,-0.418
414.379,-0.417
415.162,-0.417
415.803,-0.418
416.586,-0.418
417.226,-0.418
418.008,-0.418
418.648,-0.417
419.432,-0.418
420.071,-0.417
420.855,-0.417
421.495,-0.417
422.278,-0.417
422.918,-0.418
423.700,-0.417
424.341,-0.416
425.124,-0.417
425.764,-0.417
426.547,-0.416
427.186,-0.416
427.971,-0.415
428.611,-0.415
429.393,-0.414
430.034,-0.414
430.816,-0.413
431.457,-0.414
432.239,-0.412
432.880,-0.412
433.662,-0.409
434.303,-0.409
435.085,-0.407
435.727,-0.406
436.509,-0.404
437.149,-0.404
437.932,-0.401
438.571,-0.400
439.354,-0.397
439.995,-0.396
440.778,-0.394
441.419,-0.393
442.202,-0.390
442.841,-0.388
443.624,-0.386
444.265,-0.383
445.048,-0.380
445.688,-0.379
446.470,-0.375
447.111,-0.373
447.894,-0.369
448.533,-0.367
449.317,-0.363
449.956,-0.361
450.739,-0.357
451.380,-0.355
452.163,-0.351
452.803,-0.349
453.586,-0.344
454.226,-0.342
455.009,-0.337
455.650,-0.335
456.433,-0.330
457.073,-0.327
457.855,-0.322
458.496,-0.320
459.278,-0.315
459.918,-0.312
460.701,-0.307
461.342,-0.304
462.125,-0.299
462.765,-0.296
463.548,-0.290
464.188,-0.287
464.972,-0.283
465.611,-0.280
466.395,-0.274
467.034,-0.271
467.817,-0.265
468.457,-0.262
469.239,-0.256
469.881,-0.253
470.663,-0.246
471.304,-0.244
472.086,-0.237
472.727,-0.234
473.509,-0.228
474.151,-0.225
474.933,-0.219
475.572,-0.215
476.356,-0.209
476.996,-0.206
477.778,-0.200
478.418,-0.196
479.202,-0.189
479.842,-0.187
480.626,-0.180
481.266,-0.177
482.049,-0.169
482.688,-0.167
483.471,-0.158
484.112,-0.155
484.895,-0.149
485.534,-0.145
486.317,-0.139
486.957,-0.135
487.740,-0.128
488.381,-0.124
489.163,-0.117
489.804,-0.114
490.586,-0.108
491.215,-0.103
491.998,-0.097
492.638,-0.093
493.420,-0.086
494.062,-0.082
494.844,-0.075
495.485,-0.071
496.268,-0.065
496.907,-0.061
497.690,-0.054
498.332,-0.050
499.114,-0.043
499.754,-0.040
500.536,-0.033
501.177,-0.030
501.959,-0.023
502.600,-0.019
503.382,-0.012
504.023,-0.009
504.806,-0.003
505.447,0.001
506.229,0.008
506.870,0.011
507.653,0.017
508.293,0.019
509.076,0.026
509.715,0.028
510.497,0.034
511.138,0.037
511.922,0.042
512.561,0.044
513.344,0.049
513.985,0.051
514.768,0.056
515.408,0.059
516.191,0.063
516.832,0.066
517.615,0.070
518.254,0.072
519.038,0.076
519.677,0.078
520.459,0.082
521.100,0.084
521.883,0.087
522.524,0.089
523.307,0.092
523.947,0.095
524.729,0.098
525.370,0.099
526.153,0.103
526.793,0.104
527.577,0.107
528.216,0.109
528.999,0.111
529.639,0.113
530.422,0.116
531.063,0.117
531.845,0.119
532.486,0.120
533.268,0.123
533.909,0.124
534.692,0.126
535.332,0.127
536.114,0.130
536.755,0.131
537.538,0.132
538.177,0.134
538.961,0.136
539.600,0.137
540.383,0.138
541.024,0.139
541.807,0.142
542.447,0.143
543.230,0.144
543.871,0.145
544.654,0.146
545.293,0.147
546.076,0.149
546.715,0.149
547.499,0.151
548.139,0.151
548.923,0.153
549.562,0.153
550.345,0.155
550.986,0.156
551.768,0.157
552.409,0.157
553.192,0.159
553.833,0.159
554.615,0.161
555.255,0.161
556.038,0.162
556.678,0.163
557.461,0.163
558.101,0.165
558.884,0.166
559.524,0.166
560.307,0.168
560.948,0.168
561.730,0.168
562.370,0.169
563.153,0.170
563.794,0.170
564.576,0.171
565.217,0.172
566.000,0.173
566.640,0.173
567.423,0.174
568.063,0.174
568.846,0.175
569.486,0.175
570.268,0.176
570.909,0.177
571.692,0.177
572.333,0.177
573.115,0.178
573.756,0.179
574.539,0.179
575.179,0.179
575.962,0.180
576.601,0.181
577.384,0.181
578.025,0.181
578.807,0.181
579.448,0.182
580.231,0.183
580.871,0.183
581.653,0.184
582.294,0.184
583.077,0.185
583.718,0.185
584.500,0.185
585.141,0.185
585.923,0.186
586.563,0.187
587.346,0.187
587.986,0.188
588.769,0.188
589.410,0.188
590.193,0.188
590.833,0.188
591.615,0.188
592.256,0.189
593.039,0.190
593.679,0.190
594.462,0.189
595.101,0.190
595.884,0.191
596.524,0.191
597.307,0.191
597.948,0.191
598.731,0.192
599.371,0.193
600.154,0.192
600.794,0.193
601.577,0.193
602.218,0.193
603.000,0.195
603.641,0.194
604.424,0.194
605.064,0.194
605.846,0.195
606.487,0.195
607.269,0.195
607.910,0.195
608.693,0.196
609.333,0.197
610.116,0.196
610.757,0.197
611.540,0.197
612.179,0.196
612.963,0.197
613.603,0.197
614.385,0.197
615.025,0.198
615.808,0.198
616.449,0.198
617.231,0.198
617.872,0.199
618.654,0.199
619.295,0.198
620.078,0.199
620.719,0.199
621.500,0.200
622.141,0.200
622.924,0.200
623.564,0.200
624.348,0.201
624.987,0.201
625.770,0.201
626.410,0.201
627.193,0.201
627.833,0.201
628.616,0.202
629.256,0.202
630.040,0.202
630.680,0.202
631.462,0.202
632.103,0.203
632.886,0.203
633.526,0.203
634.309,0.203
634.949,0.203
635.731,0.203
636.372,0.203
637.154,0.204
637.795,0.204
638.578,0.204
639.219,0.204
640.001,0.204
640.642,0.205
641.424,0.205
642.064,0.204
642.848,0.205
643.488,0.205
644.270,0.206
644.910,0.205
645.693,0.205
646.334,0.206
647.117,0.206
647.756,0.206
648.540,0.206
649.180,0.207
649.963,0.207
650.603,0.206
651.386,0.207
652.026,0.207
652.810,0.207
653.450,0.207
654.232,0.208
654.872,0.208
655.655,0.208
656.296,0.208
657.078,0.207
657.719,0.208
658.502,0.208
659.141,0.209
659.925,0.209
660.565,0.208
661.348,0.209
661.988,0.208
662.772,0.209
663.411,0.209
664.193,0.209
664.834,0.209
665.617,0.209
666.257,0.210
667.040,0.210
667.681,0.210
668.463,0.210
669.104,0.210
669.886,0.210
670.526,0.210
671.310,0.210
671.949,0.211
672.732,0.211
673.372,0.211
674.156,0.211
674.796,0.211
675.578,0.211
676.220,0.211
677.001,0.212
677.643,0.211
678.425,0.212
679.066,0.212
679.848,0.212
680.487,0.212
681.271,0.213
681.911,0.213
682.693,0.212
683.334,0.213
684.116,0.212
684.757,0.212
685.540,0.213
686.181,0.212
686.964,0.213
687.604,0.213
688.386,0.213
689.028,0.213
689.810,0.213
690.449,0.214
691.233,0.213
691.873,0.213
692.655,0.213
693.296,0.214
694.078,0.213
694.719,0.214
695.502,0.215
696.142,0.214
696.925,0.214
697.566,0.214
698.349,0.215
698.988,0.215
699.771,0.214
700.411,0.215
701.195,0.215
701.834,0.215
702.617,0.215
703.258,0.215
704.040,0.215
704.681,0.216
705.463,0.216
706.105,0.215
706.886,0.216
707.528,0.216
708.310,0.216
708.950,0.216
709.733,0.216
710.373,0.216
711.156,0.217
711.797,0.217
712.579,0.216
713.220,0.216
714.003,0.217
714.643,0.217
715.426,0.216
716.066,0.217
716.849,0.217
717.490,0.217
718.271,0.217
718.912,0.217
719.695,0.217
720.334,0.218
721.117,0.217
721.757,0.218
722.540,0.218
723.181,0.218
723.964,0.218
724.605,0.218
725.387,0.219
726.028,0.218
726.811,0.218
727.451,0.219
728.234,0.219
728.873,0.218
