room_temperature(K),292.40
water_volume(mL),500.0
solute_molarmass(g/mol),74.551
solute_mass(g),10.0123
R1(Omega),9.74
R2(Omega),9.62
t1(s),435.281
t2(s),593.056
current(A),1.44
time(s),Delta_T(K)
0.500,-0.000
1.118,-0.000
1.758,-0.000
2.399,-0.000
3.016,-0.000
3.656,-0.000
4.296,0.001
4.913,-0.000
5.554,-0.000
6.194,-0.000
6.810,0.001
7.451,0.001
8.092,0.001
8.708,-0.000
9.348,0.001
9.989,0.001
10.606,0.001
11.246,0.002
11.888,0.001
12.504,0.001
13.144,0.001
13.786,0.001
14.402,0.001
15.041,0.001
15.682,0.001
16.299,0.002
16.940,0.001
17.579,0.002
18.197,0.002
18.837,0.002
19.478,0.002
20.094,0.001
20.734,0.001
21.375,0.002
21.993,0.002
22.632,0.002
23.272,0.002
23.890,0.002
24.531,0.002
25.171,0.002
25.787,0.002
26.428,0.003
27.069,0.001
27.685,0.002
28.325,0.003
28.966,0.003
29.583,0.002
30.223,0.002
30.864,0.003
31.481,0.003
32.121,0.003
32.761,0.002
33.377,0.004
34.018,0.003
34.659,0.003
35.276,0.003
35.916,0.003
36.557,0.003
37.173,0.003
37.814,0.003
38.455,0.004
39.071,0.003
39.712,0.004
40.352,0.004
40.968,0.004
41.609,0.004
42.250,0.004
42.867,0.003
43.508,0.004
44.148,0.004
44.764,0.004
45.405,0.004
46.045,0.003
46.662,0.004
47.302,0.004
47.944,0.005
48.559,0.004
49.200,0.004
49.841,0.004
50.458,0.005
51.098,0.004
51.738,0.004
52.356,0.004
52.996,0.004
53.636,0.004
54.252,0.004
54.893,0.004
55.534,0.005
56.150,0.005
56.791,0.004
57.431,0.005
58.048,0.004
58.689,0.005
59.329,0.005
59.946,0.005
60.586,0.005
61.227,0.005
61.843,0.005
62.484,0.005
63.124,0.005
63.741,0.006
64.382,0.005
65.022,0.005
65.639,0.006
66.279,0.006
66.920,0.005
67.536,0.005
68.178,0.005
68.818,0.005
69.434,0.006
70.074,0.006
70.715,0.006
71.333,0.005
71.972,0.005
72.612,0.006
73.230,0.006
73.870,0.007
74.510,0.006
75.127,0.006
75.767,0.006
76.409,0.006
77.025,0.006
77.666,0.006
78.306,0.006
78.922,0.006
79.564,0.006
80.203,0.007
80.820,0.006
81.461,0.006
82.102,0.006
82.717,0.006
83.358,0.006
83.999,0.006
84.616,0.007
85.256,0.007
85.897,0.007
86.513,0.006
87.154,0.006
87.794,0.006
88.411,0.007
89.051,0.006
89.692,0.006
90.308,0.007
90.949,0.007
91.590,0.006
92.207,0.007
92.846,0.008
93.487,0.007
94.104,0.007
94.745,0.007
95.385,0.007
96.001,0.007
96.642,0.007
97.283,0.007
97.899,0.007
98.540,0.007
99.180,0.007
99.797,0.007
100.437,0.007
101.078,0.007
101.695,0.007
102.336,0.007
102.975,0.008
103.592,0.007
104.233,0.007
104.874,0.008
105.490,0.007
106.130,0.008
106.771,0.008
107.388,0.007
108.029,0.008
108.668,0.008
109.286,0.007
109.926,0.008
110.567,0.008
111.183,0.007
111.823,0.008
112.464,0.008
113.081,0.008
113.721,0.008
114.362,0.008
114.979,0.007
115.620,0.007
116.259,0.008
116.877,0.008
117.517,0.008
118.157,0.008
118.774,0.008
119.414,0.008
120.054,0.008
120.672,0.008
121.312,0.008
121.953,0.008
122.569,0.007
123.210,0.008
123.849,0.009
124.467,0.008
125.107,0.008
125.748,0.008
126.364,0.009
127.004,0.009
127.646,0.009
128.263,0.009
128.902,0.008
129.544,0.008
130.160,0.009
130.800,0.008
131.440,0.009
132.057,0.009
132.698,0.009
133.338,0.008
133.955,0.009
134.595,0.009
135.236,0.009
135.854,0.009
136.493,0.009
137.134,0.009
137.750,0.009
138.391,0.009
139.032,0.009
139.649,0.009
140.288,0.009
140.930,0.009
141.546,0.009
142.186,0.009
142.827,0.009
143.444,0.010
144.084,0.009
144.725,0.009
145.341,0.009
145.982,0.010
146.623,0.010
147.239,0.009
147.879,0.009
148.520,0.010
149.137,0.010
149.777,0.009
150.417,0.010
151.034,0.009
151.675,0.010
152.314,0.009
152.931,0.010
153.572,0.010
154.213,0.010
154.829,0.010
155.469,0.009
156.110,0.010
156.728,0.010
157.368,0.010
158.008,0.010
158.624,0.009
159.265,0.010
159.906,0.010
160.523,0.010
161.163,0.010
161.804,0.009
162.420,0.010
163.060,0.010
163.701,0.011
164.318,0.010
164.958,0.010
165.598,0.009
166.216,0.010
166.857,0.010
167.497,0.010
168.113,0.011
168.754,0.010
169.394,0.010
170.010,0.010
170.652,0.010
171.291,0.010
171.909,0.010
172.549,0.011
173.189,0.010
173.807,0.011
174.447,0.011
175.088,0.010
175.703,0.010
176.345,0.010
176.985,0.010
177.602,0.011
178.242,0.010
178.882,0.011
179.499,0.011
180.140,0.011
180.780,0.011
181.398,0.011
182.037,0.011
182.678,0.011
183.294,0.011
183.935,0.010
184.576,0.010
185.192,0.011
185.833,0.011
186.473,0.011
187.091,0.011
187.730,0.011
188.371,0.011
188.987,0.011
189.628,0.011
190.269,0.011
190.885,0.011
191.525,0.011
192.166,0.011
192.783,0.011
193.423,0.011
194.064,0.011
194.681,0.011
195.321,0.011
195.961,0.011
196.578,0.011
197.219,0.011
197.859,0.011
198.476,0.011
199.116,0.011
199.757,0.010
200.374,-0.018
201.014,-0.060
201.654,-0.106
202.272,-0.191
202.912,-0.227
203.551,-0.261
204.169,-0.332
204.809,-0.366
205.450,-0.400
206.067,-0.461
206.707,-0.491
207.347,-0.518
207.964,-0.569
208.604,-0.594
209.245,-0.619
209.861,-0.665
210.502,-0.688
211.143,-0.712
211.759,-0.754
212.400,-0.773
213.041,-0.792
213.658,-0.828
214.215,-0.846
214.855,-0.863
215.555,-0.895
216.112,-0.911
216.753,-0.927
217.452,-0.955
218.093,-0.968
218.733,-0.981
219.350,-1.007
219.991,-1.019
220.631,-1.031
221.247,-1.052
221.888,-1.063
222.528,-1.073
223.146,-1.093
223.785,-1.103
224.426,-1.113
225.043,-1.131
225.684,-1.140
226.325,-1.149
226.940,-1.165
227.581,-1.173
228.222,-1.181
228.839,-1.196
229.479,-1.203
230.119,-1.210
230.736,-1.224
231.377,-1.230
232.017,-1.236
232.634,-1.248
233.274,-1.254
233.915,-1.259
234.531,-1.270
235.172,-1.275
235.812,-1.281
236.429,-1.291
237.070,-1.296
237.710,-1.301
238.327,-1.309
238.967,-1.314
239.607,-1.318
240.224,-1.327
240.864,-1.330
241.506,-1.334
242.121,-1.341
242.763,-1.345
243.404,-1.350
244.020,-1.357
244.660,-1.360
245.300,-1.364
245.918,-1.371
246.558,-1.374
247.198,-1.377
247.814,-1.383
248.456,-1.386
249.096,-1.388
249.713,-1.394
250.353,-1.397
250.993,-1.400
251.610,-1.405
252.250,-1.407
252.891,-1.410
253.509,-1.415
254.148,-1.417
254.789,-1.419
255.406,-1.424
256.047,-1.426
256.687,-1.428
257.302,-1.433
257.944,-1.435
258.739,-1.439
259.379,-1.442
260.162,-1.446
260.802,-1.447
261.585,-1.451
262.225,-1.453
263.007,-1.457
263.648,-1.459
264.431,-1.463
265.071,-1.465
265.854,-1.470
266.495,-1.471
267.278,-1.475
267.918,-1.477
268.701,-1.480
269.341,-1.482
270.124,-1.484
270.764,-1.487
271.547,-1.490
272.188,-1.492
272.970,-1.494
273.611,-1.496
274.394,-1.499
275.034,-1.499
275.817,-1.502
276.457,-1.503
277.240,-1.506
277.881,-1.507
278.664,-1.509
279.304,-1.510
280.086,-1.511
280.727,-1.513
281.510,-1.514
282.150,-1.515
282.932,-1.517
283.573,-1.518
284.356,-1.520
284.996,-1.521
285.779,-1.522
286.420,-1.522
287.202,-1.524
287.843,-1.525
288.625,-1.526
289.266,-1.527
290.049,-1.528
290.689,-1.529
291.473,-1.530
292.113,-1.531
292.895,-1.532
293.536,-1.533
294.320,-1.534
294.959,-1.534
295.742,-1.536
296.382,-1.535
297.165,-1.536
297.805,-1.537
298.589,-1.538
299.229,-1.538
300.012,-1.539
300.651,-1.539
301.436,-1.539
302.076,-1.540
302.858,-1.540
303.499,-1.541
304.282,-1.541
304.923,-1.541
305.704,-1.541
306.346,-1.542
307.128,-1.543
307.768,-1.543
308.551,-1.543
309.192,-1.543
309.974,-1.543
310.615,-1.544
311.398,-1.544
312.038,-1.544
312.821,-1.544
313.462,-1.545
314.244,-1.545
314.885,-1.544
315.667,-1.545
316.308,-1.546
317.090,-1.545
317.731,-1.545
318.514,-1.545
319.154,-1.545
319.937,-1.546
320.578,-1.546
321.360,-1.546
322.001,-1.546
322.783,-1.546
323.424,-1.545
324.207,-1.546
324.847,-1.546
325.629,-1.545
326.271,-1.546
327.053,-1.545
327.693,-1.546
328.476,-1.546
329.117,-1.546
329.899,-1.546
330.539,-1.545
331.322,-1.546
331.963,-1.546
332.746,-1.545
333.386,-1.546
334.169,-1.545
334.809,-1.546
335.594,-1.546
336.233,-1.546
337.016,-1.545
337.656,-1.545
338.439,-1.545
339.079,-1.545
339.863,-1.545
340.503,-1.545
341.285,-1.545
341.925,-1.544
342.709,-1.545
343.349,-1.545
344.132,-1.544
344.772,-1.545
345.556,-1.545
346.196,-1.545
346.979,-1.544
347.619,-1.544
348.402,-1.545
349.042,-1.545
349.825,-1.544
350.466,-1.544
351.247,-1.544
351.889,-1.544
352.672,-1.544
353.312,-1.544
354.095,-1.544
354.735,-1.544
355.518,-1.543
356.158,-1.544
356.940,-1.544
357.581,-1.543
358.364,-1.543
359.004,-1.543
359.786,-1.543
360.428,-1.543
361.210,-1.543
361.850,-1.543
362.634,-1.543
363.274,-1.543
364.057,-1.543
364.697,-1.543
365.480,-1.543
366.120,-1.543
366.903,-1.543
367.544,-1.543
368.326,-1.542
368.967,-1.542
369.750,-1.542
370.390,-1.542
371.173,-1.542
371.813,-1.542
372.596,-1.542
373.236,-1.542
374.019,-1.542
374.660,-1.542
375.442,-1.541
376.083,-1.541
376.866,-1.542
377.507,-1.541
378.289,-1.540
378.929,-1.540
379.712,-1.541
380.353,-1.541
381.135,-1.541
381.776,-1.540
382.558,-1.540
383.199,-1.541
383.981,-1.541
384.622,-1.540
385.404,-1.540
386.045,-1.540
386.829,-1.540
387.468,-1.540
388.252,-1.540
388.891,-1.540
389.675,-1.539
390.316,-1.539
391.099,-1.539
391.737,-1.539
392.522,-1.540
393.162,-1.540
393.945,-1.539
394.584,-1.539
395.368,-1.540
396.008,-1.539
396.791,-1.539
397.431,-1.539
398.215,-1.539
398.855,-1.538
399.638,-1.539
400.278,-1.539
401.061,-1.539
401.702,-1.539
402.484,-1.538
403.124,-1.538
403.907,-1.539
404.548,-1.539
405.330,-1.538
405.971,-1.538
406.754,-1.538
407.394,-1.538
408.177,-1.537
408.818,-1.538
409.599,-1.538
410.241,-1.537
411.023,-1.537
411.663,-1.538
412.446,-1.537
413.087,-1.537
413.870,-1.537
414.510,-1.537
415.293,-1.537
415.933,-1.537
416.716,-1.537
417.356,-1.537
418.139,-1.537
418.779,-1.537
419.562,-1.536
420.204,-1.537
420.985,-1.537
421.626,-1.537
422.409,-1.537
423.049,-1.536
423.832,-1.537
424.473,-1.537
425.255,-1.536
425.896,-1.535
426.678,-1.536
427.319,-1.536
428.101,-1.536
428.742,-1.536
429.525,-1.535
430.165,-1.536
430.948,-1.536
431.588,-1.535
432.371,-1.535
433.012,-1.535
433.794,-1.535
434.435,-1.535
435.217,-1.535
435.858,-1.535
436.640,-1.535
437.281,-1.535
438.064,-1.534
438.705,-1.535
439.488,-1.534
440.128,-1.534
440.911,-1.534
441.551,-1.534
442.334,-1.534
442.974,-1.534
443.758,-1.534
444.397,-1.534
445.180,-1.532
445.820,-1.532
446.604,-1.532
447.243,-1.531
448.027,-1.531
448.666,-1.530
449.450,-1.528
450.091,-1.528
450.873,-1.526
451.514,-1.525
452.297,-1.524
452.938,-1.522
453.720,-1.521
454.360,-1.520
455.143,-1.517
455.784,-1.517
456.566,-1.514
457.207,-1.512
457.990,-1.510
458.630,-1.509
459.412,-1.506
460.053,-1.504
460.835,-1.501
461.476,-1.499
462.259,-1.496
462.899,-1.494
463.682,-1.491
464.322,-1.489
465.105,-1.485
465.746,-1.484
466.528,-1.480
467.169,-1.477
467.951,-1.473
468.592,-1.471
469.375,-1.466
470.015,-1.464
470.798,-1.460
471.439,-1.458
472.221,-1.453
472.862,-1.451
473.644,-1.446
474.285,-1.443
475.068,-1.438
475.696,-1.436
476.336,-1.433
476.953,-1.428
477.595,-1.424
478.234,-1.422
478.851,-1.417
479.491,-1.415
480.132,-1.412
480.749,-1.406
481.389,-1.403
482.029,-1.401
482.647,-1.395
483.286,-1.391
483.928,-1.389
484.544,-1.384
485.185,-1.380
485.825,-1.378
486.441,-1.372
487.082,-1.368
487.723,-1.366
488.338,-1.358
488.980,-1.356
489.620,-1.353
490.236,-1.346
490.877,-1.344
491.517,-1.341
492.134,-1.335
492.775,-1.330
493.415,-1.326
494.032,-1.320
494.673,-1.317
495.313,-1.314
495.929,-1.308
496.569,-1.305
497.210,-1.301
497.828,-1.295
498.467,-1.292
499.107,-1.288
499.725,-1.282
500.366,-1.278
501.005,-1.274
501.622,-1.267
502.263,-1.264
502.904,-1.261
503.519,-1.254
504.160,-1.249
504.801,-1.246
505.418,-1.239
506.058,-1.236
506.699,-1.233
507.316,-1.226
507.956,-1.222
508.595,-1.218
509.213,-1.211
509.853,-1.206
510.494,-1.203
511.110,-1.197
511.751,-1.193
512.392,-1.189
513.008,-1.181
513.649,-1.178
514.289,-1.175
514.906,-1.168
515.547,-1.164
516.186,-1.161
516.803,-1.154
517.444,-1.150
518.084,-1.146
518.701,-1.138
519.341,-1.135
519.982,-1.131
520.599,-1.124
521.238,-1.120
521.879,-1.117
522.496,-1.109
523.137,-1.105
523.777,-1.102
524.394,-1.094
525.035,-1.090
525.675,-1.086
526.292,-1.079
526.932,-1.075
527.573,-1.071
528.189,-1.063
528.829,-1.059
529.470,-1.055
530.087,-1.048
530.727,-1.044
531.367,-1.041
531.984,-1.033
532.624,-1.029
533.266,-1.025
533.882,-1.017
534.522,-1.014
535.163,-1.009
535.780,-1.002
536.420,-0.998
537.060,-0.994
537.677,-0.987
538.317,-0.982
538.958,-0.979
539.574,-0.972
540.215,-0.968
540.856,-0.964
541.472,-0.955
542.113,-0.952
542.754,-0.948
543.371,-0.941
544.010,-0.937
544.651,-0.933
545.268,-0.924
545.908,-0.920
546.548,-0.917
547.165,-0.909
547.806,-0.905
548.446,-0.902
549.063,-0.894
549.703,-0.889
550.343,-0.886
550.960,-0.878
551.601,-0.874
552.241,-0.871
552.858,-0.863
553.497,-0.859
554.138,-0.855
554.755,-0.847
555.396,-0.843
556.035,-0.840
556.653,-0.831
557.294,-0.828
557.934,-0.824
558.550,-0.816
559.192,-0.812
559.831,-0.807
560.448,-0.800
561.088,-0.796
561.729,-0.793
562.346,-0.785
562.987,-0.781
563.627,-0.777
564.243,-0.769
564.885,-0.766
565.524,-0.762
566.141,-0.754
566.781,-0.750
567.422,-0.745
568.039,-0.738
568.679,-0.735
569.319,-0.731
569.936,-0.723
570.577,-0.718
571.217,-0.715
571.834,-0.707
572.474,-0.703
573.032,-0.699
573.731,-0.691
574.371,-0.688
575.013,-0.683
575.629,-0.676
576.269,-0.671
576.910,-0.668
577.527,-0.660
578.167,-0.656
578.807,-0.653
579.424,-0.644
580.065,-0.640
580.705,-0.636
581.322,-0.629
581.962,-0.625
582.604,-0.620
583.220,-0.613
583.860,-0.609
584.500,-0.605
585.117,-0.597
585.758,-0.593
586.397,-0.589
587.014,-0.580
587.655,-0.577
588.296,-0.573
588.912,-0.566
589.553,-0.562
590.193,-0.558
590.811,-0.550
591.450,-0.545
592.091,-0.541
592.708,-0.534
593.349,-0.530
593.989,-0.526
594.605,-0.518
595.245,-0.514
595.803,-0.511
596.502,-0.502
597.143,-0.498
597.784,-0.494
598.401,-0.486
599.041,-0.482
599.681,-0.477
600.298,-0.470
600.939,-0.466
601.578,-0.463
602.195,-0.455
602.836,-0.451
603.477,-0.447
604.093,-0.440
604.733,-0.436
605.374,-0.433
605.991,-0.426
606.631,-0.423
607.272,-0.419
607.888,-0.412
608.529,-0.409
609.169,-0.405
609.786,-0.399
610.426,-0.397
611.067,-0.394
611.683,-0.387
612.324,-0.384
612.965,-0.381
613.580,-0.376
614.222,-0.373
614.862,-0.370
615.479,-0.365
616.119,-0.363
616.760,-0.360
617.376,-0.355
618.017,-0.354
618.658,-0.350
619.274,-0.346
619.914,-0.344
620.555,-0.341
621.171,-0.337
621.811,-0.336
622.452,-0.333
623.069,-0.329
623.709,-0.328
624.350,-0.327
624.967,-0.322
625.608,-0.320
626.248,-0.318
626.864,-0.315
627.504,-0.313
628.145,-0.312
628.761,-0.308
629.402,-0.307
630.043,-0.305
630.660,-0.302
631.300,-0.301
631.940,-0.300
632.557,-0.298
633.199,-0.296
633.838,-0.294
634.455,-0.292
635.095,-0.290
635.735,-0.288
636.352,-0.287
636.993,-0.286
637.634,-0.285
638.250,-0.282
638.889,-0.282
639.531,-0.280
640.148,-0.278
640.788,-0.277
641.429,-0.276
642.045,-0.275
642.686,-0.274
643.326,-0.272
643.943,-0.270
644.583,-0.270
645.224,-0.269
645.840,-0.267
646.480,-0.266
647.121,-0.266
647.738,-0.264
648.378,-0.263
649.019,-0.262
649.636,-0.260
650.276,-0.260
650.917,-0.259
651.533,-0.257
652.173,-0.257
652.814,-0.256
653.431,-0.254
654.070,-0.255
654.711,-0.254
655.329,-0.252
655.969,-0.252
656.609,-0.251
657.225,-0.250
657.866,-0.249
658.507,-0.249
659.123,-0.248
659.764,-0.247
660.404,-0.247
661.022,-0.246
661.661,-0.245
662.302,-0.245
662.919,-0.243
663.560,-0.243
664.199,-0.242
664.817,-0.241
665.457,-0.241
666.098,-0.241
666.713,-0.240
667.354,-0.239
667.995,-0.239
668.612,-0.238
669.251,-0.237
669.892,-0.237
670.509,-0.237
671.150,-0.236
671.790,-0.235
672.407,-0.235
673.048,-0.234
673.688,-0.234
674.304,-0.233
674.945,-0.233
675.585,-0.233
676.203,-0.232
676.842,-0.232
677.483,-0.231
678.100,-0.230
678.740,-0.230
679.381,-0.230
679.997,-0.229
680.638,-0.229
681.279,-0.228
681.895,-0.227
682.535,-0.228
683.176,-0.228
683.793,-0.227
684.433,-0.227
685.073,-0.227
685.690,-0.225
686.330,-0.225
686.971,-0.225
687.587,-0.225
688.228,-0.225
688.869,-0.224
689.484,-0.224
690.125,-0.224
690.766,-0.223
691.383,-0.223
692.023,-0.223
692.664,-0.222
693.280,-0.222
693.921,-0.222
694.561,-0.221
695.178,-0.220
695.819,-0.221
696.459,-0.220
697.075,-0.220
697.716,-0.220
698.357,-0.219
698.974,-0.219
699.613,-0.218
700.254,-0.218
700.871,-0.218
701.512,-0.218
702.151,-0.218
702.769,-0.217
703.410,-0.217
704.050,-0.218
704.666,-0.217
705.306,-0.216
705.947,-0.216
706.563,-0.216
707.204,-0.216
707.845,-0.215
708.461,-0.215
709.101,-0.215
709.742,-0.215
710.358,-0.214
710.999,-0.214
711.640,-0.215
712.256,-0.214
712.897,-0.214
713.538,-0.213
714.153,-0.213
714.794,-0.213
715.435,-0.213
716.052,-0.213
716.692,-0.212
717.332,-0.213
717.949,-0.212
718.589,-0.212
719.230,-0.212
719.847,-0.212
720.487,-0.211
721.127,-0.211
721.744,-0.211
722.384,-0.211
723.026,-0.211
723.642,-0.211
724.282,-0.211
724.922,-0.210
725.540,-0.210
726.180,-0.210
726.820,-0.210
727.437,-0.210
728.077,-0.209
728.718,-0.210
729.334,-0.209
729.975,-0.210
730.616,-0.209
731.232,-0.209
731.873,-0.208
732.513,-0.208
733.130,-0.208
733.771,-0.208
734.411,-0.207
735.028,-0.208
735.668,-0.207
736.309,-0.207
736.924,-0.207
737.566,-0.207
738.206,-0.207
738.823,-0.207
739.463,-0.207
740.103,-0.207
740.721,-0.207
741.361,-0.207
742.001,-0.206
742.618,-0.206
743.259,-0.206
743.899,-0.206
744.515,-0.205
745.156,-0.207
745.796,-0.206
746.413,-0.206
747.053,-0.205
747.694,-0.206
748.310,-0.205
748.952,-0.205
749.591,-0.205
750.208,-0.204
750.849,-0.205
751.489,-0.204
752.105,-0.204
752.746,-0.205
753.386,-0.204
754.003,-0.204
754.643,-0.204
755.284,-0.204
755.901,-0.203
756.542,-0.204
757.182,-0.204
757.799,-0.203
758.439,-0.203
759.079,-0.203
759.696,-0.203
760.337,-0.202
760.977,-0.203
761.594,-0.202
762.234,-0.202
762.875,-0.203
763.491,-0.203
764.132,-0.203
764.772,-0.203
765.389,-0.202
766.030,-0.202
766.670,-0.203
767.286,-0.202
767.927,-0.202
768.567,-0.202
