room_temperature(K),292.19
water_volume(mL),500.0
solute_molarmass(g/mol),74.551
solute_mass(g),10.0272
R1(Omega),9.74
R2(Omega),9.62
t1(s),416.391
t2(s),570.719
current(A),1.44
time(s),Delta_T(K)
0.556,0.001
1.197,0.002
1.837,0.001
2.454,0.001
3.094,0.001
3.734,0.001
4.351,0.001
4.992,0.001
5.632,0.001
6.248,0.002
6.890,0.002
7.530,0.002
8.146,0.002
8.787,0.002
9.428,0.002
10.044,0.001
10.684,0.002
11.325,0.002
11.942,0.002
12.582,0.002
13.222,0.002
13.839,0.002
14.480,0.002
15.120,0.003
15.736,0.002
16.376,0.002
17.017,0.002
17.635,0.002
18.274,0.002
18.915,0.002
19.532,0.003
20.173,0.002
20.813,0.002
21.429,0.002
22.070,0.002
22.710,0.003
23.327,0.002
23.967,0.003
24.609,0.002
25.224,0.003
25.865,0.002
26.505,0.003
27.123,0.002
27.763,0.003
28.403,0.002
29.019,0.003
29.661,0.003
30.300,0.002
30.917,0.002
31.557,0.002
32.198,0.002
32.815,0.003
33.456,0.003
34.096,0.003
34.712,0.003
35.353,0.003
35.993,0.003
36.609,0.003
37.251,0.003
37.891,0.003
38.507,0.003
39.148,0.003
39.789,0.003
40.405,0.003
41.045,0.003
41.686,0.003
42.303,0.003
42.944,0.003
43.583,0.003
44.200,0.003
44.840,0.003
45.481,0.003
46.098,0.003
46.738,0.003
47.379,0.003
47.995,0.003
48.636,0.003
49.276,0.003
49.894,0.003
50.534,0.003
51.174,0.004
51.790,0.003
52.431,0.003
53.071,0.003
53.688,0.003
54.328,0.003
54.969,0.003
55.586,0.004
56.226,0.004
56.867,0.003
57.483,0.003
58.124,0.003
58.764,0.004
59.381,0.004
60.021,0.003
60.662,0.003
61.278,0.003
61.919,0.003
62.559,0.003
63.176,0.003
63.816,0.004
64.457,0.004
65.073,0.004
65.714,0.003
66.354,0.003
66.971,0.003
67.612,0.004
68.252,0.004
68.868,0.003
69.509,0.004
70.149,0.004
70.766,0.004
71.407,0.004
72.047,0.004
72.664,0.004
73.304,0.003
73.945,0.004
74.562,0.004
75.202,0.004
75.842,0.004
76.459,0.004
77.099,0.004
77.740,0.005
78.356,0.004
78.997,0.005
79.637,0.005
80.254,0.004
80.895,0.004
81.535,0.004
82.152,0.004
82.792,0.005
83.433,0.005
84.050,0.004
84.690,0.004
85.330,0.005
85.946,0.004
86.587,0.004
87.228,0.004
87.844,0.005
88.485,0.004
89.126,0.005
89.742,0.005
90.383,0.005
91.023,0.004
91.640,0.004
92.280,0.005
92.920,0.004
93.537,0.005
94.177,0.004
94.818,0.005
95.435,0.004
96.076,0.004
96.716,0.005
97.332,0.004
97.973,0.005
98.612,0.005
99.229,0.005
99.870,0.005
100.511,0.005
101.128,0.005
101.768,0.005
102.408,0.005
103.025,0.005
103.666,0.005
104.305,0.005
104.923,0.005
105.563,0.005
106.203,0.005
106.821,0.005
107.460,0.005
108.101,0.005
108.718,0.005
109.359,0.005
109.998,0.005
110.615,0.005
111.256,0.005
111.896,0.005
112.513,0.005
113.152,0.005
113.794,0.005
114.410,0.005
115.051,0.005
115.691,0.005
116.307,0.005
116.948,0.005
117.588,0.005
118.205,0.005
118.846,0.006
119.487,0.005
120.103,0.005
120.743,0.005
121.384,0.005
122.001,0.005
122.641,0.006
123.281,0.005
123.898,0.005
124.539,0.005
125.179,0.005
125.795,0.006
126.436,0.006
127.077,0.006
127.694,0.006
128.333,0.005
128.974,0.006
129.591,0.006
130.232,0.006
130.871,0.006
131.488,0.006
132.129,0.005
132.769,0.005
133.386,0.006
134.027,0.006
134.667,0.006
135.284,-0.002
135.923,-0.022
136.564,-0.056
137.181,-0.122
137.822,-0.152
138.462,-0.179
139.079,-0.232
139.719,-0.261
140.360,-0.288
140.976,-0.336
141.617,-0.360
142.257,-0.382
142.875,-0.428
143.513,-0.451
144.155,-0.473
144.772,-0.513
145.413,-0.532
146.052,-0.550
146.669,-0.588
147.310,-0.605
147.950,-0.621
148.567,-0.655
149.208,-0.672
149.847,-0.687
150.464,-0.718
151.104,-0.732
151.745,-0.746
152.362,-0.773
153.002,-0.786
153.643,-0.798
154.259,-0.822
154.900,-0.834
155.540,-0.845
156.157,-0.867
156.797,-0.878
157.438,-0.888
158.055,-0.908
158.695,-0.918
159.335,-0.927
159.952,-0.945
160.593,-0.953
161.233,-0.961
161.849,-0.977
162.491,-0.985
163.131,-0.992
163.748,-1.008
164.388,-1.015
165.029,-1.022
165.645,-1.036
166.285,-1.043
166.926,-1.050
167.542,-1.063
168.183,-1.069
168.823,-1.075
169.440,-1.086
170.080,-1.092
170.722,-1.098
171.338,-1.107
171.978,-1.112
172.618,-1.117
173.235,-1.126
173.875,-1.130
174.516,-1.136
175.133,-1.144
175.773,-1.148
176.414,-1.153
177.030,-1.161
177.671,-1.165
178.311,-1.169
178.927,-1.177
179.568,-1.180
180.208,-1.184
180.825,-1.191
181.466,-1.195
182.107,-1.199
182.723,-1.206
183.363,-1.209
184.004,-1.213
184.620,-1.219
185.261,-1.222
185.902,-1.226
186.517,-1.232
187.159,-1.236
187.798,-1.238
188.415,-1.244
189.056,-1.247
189.626,-1.250
190.325,-1.256
190.966,-1.259
191.748,-1.265
192.389,-1.267
193.171,-1.272
193.812,-1.276
194.595,-1.280
195.235,-1.284
196.017,-1.287
196.658,-1.291
197.440,-1.295
198.082,-1.298
198.864,-1.302
199.504,-1.304
200.288,-1.308
200.927,-1.311
201.710,-1.315
202.351,-1.317
203.134,-1.322
203.775,-1.324
204.556,-1.328
205.197,-1.331
205.981,-1.335
206.621,-1.337
207.403,-1.341
208.044,-1.344
208.826,-1.347
209.467,-1.349
210.250,-1.353
210.890,-1.355
211.673,-1.359
212.313,-1.361
213.095,-1.365
213.737,-1.367
214.519,-1.371
215.160,-1.372
215.942,-1.376
216.583,-1.377
217.366,-1.381
218.006,-1.382
218.789,-1.386
219.430,-1.387
220.212,-1.391
220.852,-1.393
221.635,-1.395
222.275,-1.397
223.058,-1.401
223.698,-1.403
224.481,-1.406
225.121,-1.407
225.905,-1.410
226.545,-1.411
227.328,-1.414
227.968,-1.416
228.751,-1.418
229.390,-1.419
230.174,-1.422
230.815,-1.423
231.598,-1.426
232.238,-1.427
233.020,-1.430
233.660,-1.431
234.444,-1.433
235.084,-1.435
235.866,-1.437
236.507,-1.438
237.289,-1.440
237.930,-1.442
238.713,-1.444
239.354,-1.445
240.136,-1.447
240.776,-1.448
241.559,-1.449
242.200,-1.450
242.982,-1.452
243.623,-1.453
244.405,-1.454
245.046,-1.455
245.829,-1.457
246.469,-1.458
247.252,-1.459
247.893,-1.460
248.675,-1.462
249.316,-1.463
250.098,-1.464
250.739,-1.465
251.522,-1.466
252.162,-1.467
252.945,-1.468
253.585,-1.470
254.368,-1.471
255.009,-1.471
255.791,-1.472
256.431,-1.473
257.214,-1.474
257.855,-1.474
258.638,-1.475
259.278,-1.475
260.061,-1.475
260.701,-1.477
261.484,-1.478
262.125,-1.478
262.908,-1.479
263.548,-1.479
264.330,-1.480
264.971,-1.480
265.753,-1.481
266.394,-1.481
267.177,-1.482
267.817,-1.482
268.600,-1.483
269.241,-1.484
270.023,-1.484
270.664,-1.484
271.446,-1.485
272.087,-1.486
272.869,-1.486
273.510,-1.487
274.293,-1.487
274.933,-1.487
275.716,-1.487
276.357,-1.488
277.139,-1.488
277.780,-1.488
278.563,-1.489
279.203,-1.489
279.986,-1.488
280.625,-1.489
281.409,-1.489
282.048,-1.489
282.831,-1.489
283.471,-1.489
284.255,-1.490
284.894,-1.490
285.678,-1.490
286.318,-1.491
287.102,-1.490
287.741,-1.491
288.525,-1.490
289.164,-1.490
289.947,-1.490
290.587,-1.491
291.370,-1.490
292.011,-1.490
292.794,-1.491
293.434,-1.491
294.217,-1.490
294.857,-1.491
295.640,-1.490
296.280,-1.490
297.063,-1.490
297.704,-1.491
298.486,-1.490
299.126,-1.491
299.909,-1.491
300.550,-1.490
301.333,-1.490
301.973,-1.490
302.756,-1.490
303.396,-1.491
304.179,-1.489
304.820,-1.490
305.602,-1.490
306.242,-1.490
307.026,-1.490
307.665,-1.490
308.448,-1.489
309.090,-1.489
309.872,-1.489
310.513,-1.490
311.295,-1.489
311.936,-1.489
312.719,-1.489
313.359,-1.489
314.141,-1.489
314.781,-1.489
315.564,-1.489
316.205,-1.489
316.988,-1.489
317.629,-1.489
318.410,-1.489
319.051,-1.488
319.834,-1.488
320.473,-1.488
321.257,-1.488
321.897,-1.488
322.680,-1.488
323.321,-1.488
324.104,-1.487
324.744,-1.488
325.527,-1.488
326.167,-1.487
326.950,-1.487
327.590,-1.487
328.374,-1.487
329.014,-1.487
329.795,-1.487
330.436,-1.487
331.219,-1.487
331.859,-1.487
332.642,-1.486
333.283,-1.486
334.066,-1.486
334.706,-1.486
335.489,-1.486
336.129,-1.486
336.911,-1.486
337.552,-1.486
338.335,-1.486
338.976,-1.486
339.759,-1.486
340.399,-1.486
341.182,-1.486
341.823,-1.485
342.605,-1.486
343.246,-1.486
344.028,-1.485
344.668,-1.486
345.451,-1.486
346.092,-1.485
346.874,-1.485
347.514,-1.485
348.298,-1.485
348.937,-1.485
349.721,-1.485
350.360,-1.485
351.143,-1.485
351.784,-1.485
352.567,-1.484
353.207,-1.485
353.990,-1.484
354.630,-1.484
355.414,-1.485
356.054,-1.484
356.836,-1.485
357.476,-1.484
358.259,-1.484
358.900,-1.484
359.682,-1.484
360.324,-1.484
361.106,-1.484
361.746,-1.484
362.528,-1.484
363.170,-1.484
363.952,-1.484
364.593,-1.483
365.375,-1.483
366.016,-1.483
366.798,-1.483
367.439,-1.484
368.221,-1.484
368.862,-1.483
369.645,-1.483
370.286,-1.483
371.068,-1.483
371.709,-1.483
372.491,-1.482
373.132,-1.483
373.915,-1.483
374.555,-1.482
375.338,-1.483
375.978,-1.483
376.761,-1.482
377.401,-1.483
378.184,-1.482
378.824,-1.482
379.607,-1.482
380.247,-1.482
381.030,-1.482
381.671,-1.482
382.454,-1.482
383.094,-1.482
383.877,-1.482
384.517,-1.482
385.299,-1.482
385.940,-1.482
386.722,-1.482
387.363,-1.481
388.146,-1.481
388.786,-1.481
389.570,-1.481
390.210,-1.480
390.992,-1.481
391.633,-1.481
392.416,-1.481
393.056,-1.480
393.838,-1.481
394.479,-1.481
395.262,-1.481
395.903,-1.480
396.686,-1.480
397.325,-1.480
398.108,-1.480
398.749,-1.480
399.531,-1.480
400.172,-1.480
400.955,-1.480
401.595,-1.480
402.378,-1.479
403.019,-1.480
403.802,-1.480
404.441,-1.480
405.224,-1.479
405.864,-1.480
406.647,-1.480
407.288,-1.479
408.071,-1.480
408.711,-1.478
409.494,-1.479
410.134,-1.479
410.916,-1.479
411.557,-1.479
412.339,-1.479
412.981,-1.479
413.763,-1.479
414.403,-1.479
415.186,-1.479
415.827,-1.478
416.609,-1.478
417.250,-1.478
418.032,-1.478
418.673,-1.479
419.456,-1.479
420.097,-1.479
420.878,-1.478
421.519,-1.478
422.302,-1.478
422.942,-1.478
423.725,-1.478
424.366,-1.478
425.148,-1.477
425.789,-1.477
426.572,-1.476
427.212,-1.476
427.996,-1.476
428.636,-1.474
429.418,-1.474
430.058,-1.473
430.842,-1.472
431.481,-1.472
432.265,-1.470
432.904,-1.469
433.688,-1.467
434.328,-1.466
435.111,-1.465
435.751,-1.463
436.533,-1.461
437.174,-1.460
437.957,-1.457
438.597,-1.455
439.380,-1.453
440.021,-1.451
440.803,-1.449
441.444,-1.447
442.226,-1.444
442.866,-1.442
443.650,-1.438
444.290,-1.437
445.072,-1.433
445.713,-1.431
446.496,-1.427
447.136,-1.425
447.919,-1.421
448.560,-1.420
449.342,-1.415
449.983,-1.413
450.766,-1.409
451.406,-1.406
452.189,-1.402
452.829,-1.400
453.611,-1.395
454.253,-1.392
455.035,-1.387
455.675,-1.385
456.458,-1.380
457.098,-1.377
457.881,-1.372
458.521,-1.369
459.304,-1.363
459.945,-1.361
460.727,-1.355
461.368,-1.352
462.150,-1.347
462.791,-1.344
463.573,-1.338
464.214,-1.335
464.998,-1.329
465.638,-1.326
466.420,-1.320
467.060,-1.318
467.844,-1.312
468.484,-1.308
469.267,-1.303
469.907,-1.299
470.690,-1.292
471.330,-1.289
472.112,-1.283
472.753,-1.279
473.536,-1.274
474.176,-1.270
474.960,-1.264
475.600,-1.260
476.383,-1.253
477.023,-1.250
477.651,-1.246
478.269,-1.240
478.908,-1.237
479.549,-1.233
480.166,-1.226
480.806,-1.222
481.446,-1.220
482.063,-1.212
482.704,-1.209
483.345,-1.205
483.960,-1.198
484.601,-1.194
485.241,-1.191
485.858,-1.184
486.498,-1.180
487.140,-1.177
487.756,-1.170
488.396,-1.166
489.037,-1.163
489.653,-1.156
490.294,-1.152
490.934,-1.149
491.551,-1.141
492.191,-1.137
492.832,-1.134
493.448,-1.127
494.088,-1.123
494.729,-1.119
495.346,-1.112
495.986,-1.108
496.627,-1.105
497.243,-1.097
497.884,-1.094
498.524,-1.091
499.141,-1.083
499.782,-1.079
500.422,-1.076
501.038,-1.068
501.679,-1.065
502.319,-1.061
502.937,-1.054
503.577,-1.050
504.217,-1.047
504.834,-1.039
505.475,-1.036
506.114,-1.032
506.731,-1.024
507.372,-1.022
508.012,-1.017
508.629,-1.010
509.269,-1.006
509.910,-1.003
510.526,-0.994
511.167,-0.991
511.807,-0.987
512.423,-0.980
513.064,-0.975
513.705,-0.971
514.321,-0.964
514.962,-0.959
515.603,-0.956
516.218,-0.948
516.860,-0.945
517.500,-0.940
518.117,-0.933
518.757,-0.929
519.397,-0.925
520.015,-0.917
520.655,-0.912
521.294,-0.909
521.912,-0.902
522.553,-0.897
523.193,-0.893
523.809,-0.885
524.450,-0.882
525.090,-0.879
525.707,-0.871
526.347,-0.867
526.987,-0.863
527.605,-0.854
528.245,-0.850
528.885,-0.847
529.502,-0.839
530.143,-0.836
530.783,-0.832
531.399,-0.824
532.040,-0.820
532.680,-0.816
533.297,-0.807
533.937,-0.804
534.578,-0.801
535.195,-0.793
535.836,-0.789
536.475,-0.785
537.092,-0.776
537.732,-0.773
538.373,-0.769
538.990,-0.762
539.630,-0.757
540.271,-0.753
540.887,-0.746
541.527,-0.742
542.168,-0.738
542.785,-0.730
543.424,-0.726
544.066,-0.722
544.682,-0.714
545.323,-0.710
545.963,-0.706
546.579,-0.698
547.221,-0.694
547.861,-0.691
548.477,-0.682
549.118,-0.677
549.758,-0.674
550.375,-0.666
551.015,-0.662
551.656,-0.658
552.272,-0.649
552.913,-0.646
553.553,-0.641
554.170,-0.634
554.810,-0.629
555.451,-0.625
556.067,-0.617
556.707,-0.614
557.349,-0.610
557.965,-0.602
558.605,-0.599
559.246,-0.594
559.863,-0.587
560.503,-0.582
561.143,-0.579
561.760,-0.571
562.401,-0.567
563.042,-0.563
563.657,-0.555
564.298,-0.551
564.939,-0.548
565.556,-0.539
566.195,-0.535
566.836,-0.531
567.453,-0.523
568.093,-0.519
568.733,-0.516
569.350,-0.507
569.991,-0.502
570.632,-0.499
571.247,-0.491
571.805,-0.486
572.446,-0.483
573.146,-0.475
573.703,-0.470
574.343,-0.466
575.044,-0.459
575.684,-0.455
576.323,-0.450
576.940,-0.444
577.581,-0.440
578.223,-0.436
578.838,-0.428
579.479,-0.425
580.119,-0.422
580.735,-0.414
581.376,-0.411
582.017,-0.407
582.633,-0.401
583.274,-0.398
583.914,-0.394
584.531,-0.388
585.172,-0.385
585.811,-0.381
586.428,-0.375
587.069,-0.373
587.709,-0.370
588.325,-0.365
588.966,-0.362
589.607,-0.359
590.224,-0.354
590.863,-0.351
591.504,-0.349
592.121,-0.344
592.762,-0.342
593.402,-0.339
594.019,-0.336
594.659,-0.333
595.300,-0.331
595.915,-0.326
596.557,-0.325
597.197,-0.323
597.814,-0.318
598.454,-0.317
599.094,-0.315
599.711,-0.311
600.352,-0.309
600.992,-0.307
601.609,-0.305
602.249,-0.303
602.890,-0.300
603.507,-0.298
604.146,-0.296
604.787,-0.295
605.404,-0.291
606.043,-0.290
606.685,-0.289
607.301,-0.286
607.942,-0.285
608.582,-0.283
609.199,-0.281
609.839,-0.279
610.480,-0.278
611.096,-0.275
611.737,-0.274
612.378,-0.274
612.995,-0.271
613.634,-0.270
614.274,-0.269
614.892,-0.267
615.532,-0.266
616.172,-0.265
616.789,-0.263
617.430,-0.262
618.070,-0.261
618.686,-0.259
619.327,-0.258
619.967,-0.258
620.584,-0.256
621.224,-0.255
621.865,-0.254
622.483,-0.252
623.122,-0.252
623.762,-0.250
624.380,-0.250
625.020,-0.249
625.660,-0.248
626.276,-0.247
626.917,-0.246
627.558,-0.245
628.174,-0.244
628.815,-0.243
629.455,-0.242
630.072,-0.241
630.712,-0.240
631.352,-0.239
631.970,-0.238
632.610,-0.238
633.250,-0.237
633.867,-0.236
634.507,-0.236
635.148,-0.235
635.764,-0.234
636.404,-0.234
637.046,-0.234
637.662,-0.232
638.302,-0.232
638.942,-0.231
639.560,-0.231
640.200,-0.230
640.840,-0.229
641.457,-0.228
642.098,-0.228
642.738,-0.228
643.354,-0.226
643.995,-0.226
644.636,-0.226
645.252,-0.225
645.892,-0.224
646.533,-0.224
647.150,-0.223
647.790,-0.223
648.430,-0.223
649.047,-0.223
649.687,-0.222
650.328,-0.222
650.945,-0.221
651.585,-0.220
652.225,-0.220
652.843,-0.219
653.482,-0.218
654.123,-0.218
654.740,-0.218
655.381,-0.218
656.021,-0.217
656.637,-0.217
657.277,-0.217
657.919,-0.216
658.535,-0.215
659.175,-0.216
659.816,-0.215
660.432,-0.215
661.073,-0.214
661.713,-0.214
662.330,-0.213
662.970,-0.214
663.611,-0.213
664.228,-0.212
664.868,-0.212
665.508,-0.212
666.125,-0.211
666.766,-0.211
667.406,-0.211
668.023,-0.211
668.663,-0.210
669.304,-0.210
669.921,-0.209
670.561,-0.209
671.201,-0.209
671.817,-0.208
672.458,-0.209
673.099,-0.208
673.715,-0.208
674.356,-0.208
674.996,-0.207
675.613,-0.207
676.254,-0.207
676.894,-0.206
677.510,-0.207
678.151,-0.206
678.791,-0.206
679.408,-0.206
680.049,-0.206
680.689,-0.206
681.305,-0.205
681.946,-0.205
682.587,-0.205
683.204,-0.204
683.844,-0.205
684.484,-0.204
685.101,-0.204
685.740,-0.204
686.382,-0.204
686.998,-0.203
687.639,-0.203
688.278,-0.203
688.895,-0.203
689.536,-0.202
690.177,-0.202
690.793,-0.202
691.434,-0.202
692.074,-0.201
692.691,-0.201
693.330,-0.201
693.971,-0.201
694.588,-0.201
695.230,-0.201
695.869,-0.201
696.486,-0.201
697.127,-0.200
697.767,-0.200
698.383,-0.200
699.024,-0.199
699.664,-0.200
700.281,-0.199
700.921,-0.199
701.562,-0.199
702.178,-0.199
702.820,-0.199
703.459,-0.198
704.076,-0.199
704.717,-0.198
705.357,-0.198
705.974,-0.198
706.614,-0.197
707.254,-0.198
707.871,-0.197
708.511,-0.198
709.151,-0.198
709.769,-0.198
710.409,-0.197
711.049,-0.197
711.666,-0.197
712.307,-0.196
712.947,-0.196
713.563,-0.196
714.204,-0.196
714.845,-0.196
715.461,-0.196
716.101,-0.196
716.742,-0.196
717.359,-0.196
718.000,-0.195
718.639,-0.195
719.257,-0.196
719.897,-0.195
720.536,-0.195
721.153,-0.195
721.794,-0.195
722.435,-0.195
723.051,-0.194
723.691,-0.195
724.332,-0.194
724.949,-0.194
725.589,-0.194
726.229,-0.194
726.846,-0.193
727.487,-0.193
728.127,-0.194
728.744,-0.194
729.385,-0.193
730.025,-0.194
730.641,-0.193
731.281,-0.193
731.923,-0.194
732.539,-0.192
733.179,-0.193
733.820,-0.193
734.436,-0.193
735.077,-0.193
735.717,-0.192
736.333,-0.192
736.975,-0.192
737.615,-0.193
738.231,-0.192
738.872,-0.192
739.512,-0.192
740.129,-0.192
740.769,-0.191
741.410,-0.191
742.027,-0.192
742.666,-0.192
743.307,-0.191
743.924,-0.191
744.565,-0.191
745.205,-0.191
745.821,-0.192
746.463,-0.192
747.103,-0.191
747.718,-0.191
748.360,-0.191
749.001,-0.191
749.617,-0.190
750.258,-0.191
750.898,-0.190
751.515,-0.191
752.154,-0.190
752.795,-0.190
753.412,-0.190
754.052,-0.190
754.693,-0.189
755.309,-0.190
755.950,-0.190
756.590,-0.190
757.206,-0.190
757.847,-0.190
758.488,-0.189
759.105,-0.190
759.745,-0.190
760.385,-0.189
761.002,-0.189
761.642,-0.188
762.282,-0.189
762.899,-0.189
763.540,-0.189
764.181,-0.188
764.796,-0.190
765.438,-0.189
766.078,-0.189
766.695,-0.188
767.334,-0.189
767.976,-0.188
768.592,-0.188
769.232,-0.188
769.872,-0.188
770.489,-0.188
771.131,-0.188
771.771,-0.188
772.387,-0.189
773.027,-0.187
773.668,-0.188
774.284,-0.189
774.926,-0.188
775.566,-0.188
776.182,-0.188
776.822,-0.187
777.462,-0.187
778.080,-0.188
778.721,-0.188
779.361,-0.187
779.977,-0.188
780.617,-0.188
781.258,-0.188
781.874,-0.187
782.515,-0.187
783.156,-0.187
783.772,-0.187
784.412,-0.187
785.053,-0.187
785.671,-0.187
786.310,-0.187
786.951,-0.186
787.568,-0.187
788.208,-0.187
788.848,-0.187
789.465,-0.187
790.106,-0.187
790.746,-0.187
791.362,-0.186
792.003,-0.186
792.644,-0.186
793.260,-0.186
793.900,-0.186
794.541,-0.187
795.158,-0.186
795.797,-0.186
796.438,-0.186
797.056,-0.186
797.696,-0.186
798.335,-0.186
798.953,-0.186
799.594,-0.185
800.233,-0.185
800.850,-0.185
801.490,-0.185
802.132,-0.185
802.747,-0.185
803.388,-0.185
804.028,-0.185
804.645,-0.185
805.285,-0.186
805.926,-0.185
806.543,-0.185
807.184,-0.186
807.822,-0.185
808.440,-0.185
809.080,-0.185
809.721,-0.185
810.337,-0.185
810.978,-0.185
811.618,-0.185
812.234,-0.185
812.875,-0.185
813.517,-0.185
814.133,-0.185
814.773,-0.185
815.413,-0.185
816.030,-0.185
816.671,-0.184
817.311,-0.184
817.927,-0.184
818.569,-0.184
819.209,-0.184
