room_temperature(K),292.19
water_volume(mL),500.0
solute_molarmass(g/mol),74.551
solute_mass(g),10.0272
R1(Omega),9.74
R2(Omega),9.62
t1(s),531.715
t2(s),670.948
current(A),1.44
time(s),Delta_T(K)
0.312,0.004
0.953,0.003
1.569,0.004
2.210,0.004
2.850,0.004
3.468,0.004
4.107,0.004
4.748,0.003
5.365,0.005
6.005,0.004
6.645,0.004
7.262,0.004
7.903,0.004
8.544,0.004
9.160,0.005
9.800,0.004
10.441,0.005
11.057,0.005
11.698,0.005
12.338,0.005
12.955,0.005
13.595,0.005
14.236,0.005
14.853,0.005
15.492,0.005
16.133,0.005
16.750,0.005
17.390,0.005
18.030,0.005
18.647,0.005
19.288,0.005
19.929,0.005
20.545,0.005
21.186,0.005
21.826,0.005
22.441,0.006
23.083,0.005
23.723,0.005
24.340,0.005
24.980,0.005
25.620,0.005
26.238,0.006
26.878,0.005
27.518,0.006
28.134,0.005
28.776,0.005
29.416,0.005
30.032,0.005
30.673,0.006
31.313,0.006
31.930,0.006
32.570,0.005
33.211,0.005
33.827,0.005
34.468,0.005
35.108,0.006
35.725,0.006
36.365,0.006
37.005,0.005
37.622,0.006
38.263,0.005
38.903,0.006
39.519,0.006
40.160,0.006
40.800,0.005
41.418,0.006
42.058,0.005
42.698,0.005
43.314,0.006
43.955,0.006
44.596,0.006
45.212,0.006
45.853,0.006
46.493,0.006
47.110,0.007
47.750,0.007
48.390,0.007
49.007,0.006
49.649,0.006
50.288,0.007
50.905,0.007
51.545,0.006
52.187,0.007
52.802,0.007
53.443,0.007
54.083,0.006
54.699,0.007
55.340,0.007
55.980,0.007
56.598,0.006
57.238,0.007
57.878,0.007
58.495,0.006
59.135,0.006
59.776,0.006
60.393,0.007
61.033,0.007
61.673,0.007
62.290,0.007
62.931,0.008
63.570,0.006
64.186,0.007
64.828,0.007
65.468,0.007
66.085,0.007
66.725,0.007
67.366,0.007
67.982,0.007
68.623,0.007
69.263,0.007
69.880,0.007
70.520,0.007
71.161,0.008
71.778,0.008
72.417,0.007
73.058,0.008
73.675,0.007
74.315,0.007
74.956,0.008
75.572,0.007
76.213,0.007
76.852,0.008
77.469,0.008
78.110,0.007
78.751,0.008
79.367,0.008
80.008,0.008
80.648,0.008
81.264,0.008
81.906,0.008
82.546,0.008
83.162,0.008
83.802,0.008
84.443,0.008
85.060,0.008
85.701,0.008
86.341,0.008
86.957,0.007
87.597,0.008
88.238,0.009
88.855,0.008
89.495,0.008
90.136,0.008
90.751,0.008
91.393,0.009
92.034,0.008
92.650,0.008
93.290,0.009
93.930,0.009
94.547,0.008
95.188,0.009
95.828,0.008
96.445,0.009
97.084,0.009
97.726,0.009
98.342,0.008
98.982,0.009
99.623,0.009
100.240,0.009
100.880,0.010
101.522,0.009
102.137,0.009
102.778,0.008
103.418,0.009
104.035,0.008
104.675,0.009
105.316,0.009
105.932,0.009
106.573,0.009
107.213,0.009
107.830,0.009
108.470,0.009
109.110,0.009
109.727,0.009
110.368,0.009
111.008,0.009
111.625,0.009
112.265,0.009
112.905,0.009
113.522,0.009
114.162,0.009
114.803,0.009
115.419,0.010
116.060,0.009
116.701,0.010
117.318,0.010
117.957,0.010
118.598,0.009
119.215,0.010
119.855,0.010
120.496,0.009
121.113,0.010
121.752,0.009
122.393,0.009
123.009,0.010
123.650,0.010
124.290,0.010
124.907,0.009
125.548,0.009
126.188,0.010
126.804,0.009
127.445,0.009
128.085,0.010
128.702,0.010
129.343,0.009
129.983,0.010
130.600,0.009
131.240,0.010
131.881,0.011
132.497,0.010
133.138,0.009
133.778,0.011
134.394,0.010
135.035,0.010
135.675,0.010
136.292,0.010
136.932,0.010
137.573,0.010
138.190,0.010
138.831,0.010
139.471,0.011
140.087,0.011
140.728,0.010
141.368,0.009
141.984,-0.022
142.625,-0.049
143.266,-0.079
143.882,-0.135
144.522,-0.160
145.163,-0.185
145.780,-0.232
146.420,-0.256
147.060,-0.279
147.678,-0.321
148.318,-0.340
148.957,-0.360
149.574,-0.398
150.214,-0.416
150.856,-0.435
151.472,-0.469
152.112,-0.486
152.753,-0.503
153.370,-0.533
154.010,-0.548
154.650,-0.562
155.267,-0.589
155.908,-0.602
156.547,-0.614
157.165,-0.638
157.805,-0.650
158.445,-0.661
159.062,-0.683
159.702,-0.693
160.343,-0.703
160.960,-0.723
161.600,-0.731
162.240,-0.741
162.857,-0.757
163.497,-0.765
164.138,-0.773
164.755,-0.788
165.394,-0.795
166.035,-0.803
166.652,-0.816
167.292,-0.823
167.849,-0.828
168.549,-0.841
169.190,-0.847
169.831,-0.852
170.446,-0.864
171.087,-0.870
171.728,-0.874
172.344,-0.884
172.984,-0.890
173.625,-0.894
174.242,-0.904
174.881,-0.909
175.522,-0.913
176.139,-0.922
176.779,-0.926
177.419,-0.930
178.036,-0.938
178.677,-0.942
179.317,-0.947
179.934,-0.953
180.575,-0.957
181.215,-0.960
181.831,-0.969
182.473,-0.972
183.112,-0.975
183.729,-0.983
184.370,-0.987
185.010,-0.990
185.627,-0.996
186.266,-0.999
186.907,-1.003
187.524,-1.009
188.164,-1.012
188.804,-1.015
189.422,-1.021
190.062,-1.024
190.702,-1.027
191.319,-1.032
191.959,-1.035
192.599,-1.038
193.216,-1.043
193.856,-1.046
194.497,-1.049
195.114,-1.053
195.754,-1.055
196.394,-1.058
197.011,-1.063
197.581,-1.066
198.222,-1.068
198.921,-1.073
199.561,-1.075
200.344,-1.080
200.985,-1.082
201.767,-1.087
202.408,-1.089
203.191,-1.094
203.831,-1.096
204.613,-1.100
205.253,-1.102
206.036,-1.106
206.676,-1.108
207.234,-1.109
207.934,-1.114
208.574,-1.116
209.357,-1.121
209.997,-1.123
210.554,-1.124
211.253,-1.128
211.895,-1.130
212.677,-1.134
213.318,-1.135
214.100,-1.139
214.741,-1.141
215.299,-1.143
215.997,-1.146
216.639,-1.148
217.421,-1.151
218.062,-1.153
218.845,-1.155
219.485,-1.158
220.267,-1.163
220.907,-1.164
221.691,-1.167
222.330,-1.169
223.113,-1.173
223.754,-1.174
224.536,-1.177
225.177,-1.179
225.735,-1.181
226.434,-1.184
227.074,-1.186
227.857,-1.190
228.497,-1.192
229.280,-1.195
229.920,-1.196
230.703,-1.199
231.344,-1.200
232.126,-1.204
232.766,-1.205
233.550,-1.208
234.190,-1.210
234.972,-1.212
235.613,-1.214
236.395,-1.216
237.035,-1.219
237.818,-1.221
238.459,-1.222
239.242,-1.225
239.882,-1.226
240.666,-1.230
241.305,-1.231
242.088,-1.234
242.728,-1.235
243.511,-1.237
244.151,-1.238
244.934,-1.241
245.574,-1.243
246.357,-1.245
246.997,-1.246
247.780,-1.249
248.421,-1.250
249.203,-1.252
249.843,-1.253
250.626,-1.255
251.266,-1.256
252.050,-1.259
252.690,-1.260
253.472,-1.262
254.112,-1.264
254.895,-1.266
255.536,-1.267
256.319,-1.269
256.959,-1.271
257.742,-1.273
258.382,-1.274
259.165,-1.276
259.806,-1.277
260.588,-1.279
261.228,-1.280
262.011,-1.282
262.652,-1.282
263.435,-1.284
264.074,-1.285
264.857,-1.287
265.498,-1.288
266.280,-1.291
266.921,-1.291
267.703,-1.294
268.344,-1.295
269.127,-1.296
269.768,-1.297
270.550,-1.298
271.107,-1.299
271.747,-1.301
272.448,-1.303
273.087,-1.303
273.871,-1.305
274.511,-1.307
275.293,-1.309
275.933,-1.309
276.716,-1.311
277.357,-1.313
278.140,-1.313
278.780,-1.314
279.563,-1.316
280.204,-1.317
280.985,-1.319
281.626,-1.320
282.409,-1.321
283.048,-1.321
283.832,-1.323
284.473,-1.324
285.254,-1.326
285.895,-1.326
286.678,-1.327
287.319,-1.328
288.101,-1.329
288.741,-1.330
289.524,-1.331
290.165,-1.332
290.947,-1.334
291.587,-1.335
292.370,-1.335
293.010,-1.336
293.792,-1.338
294.434,-1.338
295.216,-1.339
295.857,-1.340
296.639,-1.341
297.280,-1.342
298.063,-1.343
298.703,-1.344
299.485,-1.345
300.127,-1.345
300.910,-1.346
301.549,-1.348
302.332,-1.349
302.972,-1.349
303.755,-1.351
304.395,-1.352
305.178,-1.354
305.818,-1.354
306.600,-1.355
307.241,-1.356
308.024,-1.357
308.664,-1.358
309.447,-1.360
310.088,-1.360
310.871,-1.362
311.510,-1.362
312.293,-1.365
312.934,-1.365
313.716,-1.366
314.357,-1.367
315.140,-1.369
315.780,-1.370
316.562,-1.371
317.203,-1.371
317.986,-1.373
318.626,-1.374
319.409,-1.376
320.048,-1.377
320.832,-1.377
321.472,-1.378
322.254,-1.380
322.895,-1.381
323.678,-1.381
324.318,-1.383
325.100,-1.384
325.741,-1.385
326.524,-1.387
327.165,-1.387
327.948,-1.388
328.588,-1.389
329.371,-1.390
330.010,-1.391
330.793,-1.393
331.434,-1.393
332.216,-1.394
332.857,-1.394
333.639,-1.396
334.280,-1.397
335.063,-1.397
335.704,-1.398
336.486,-1.400
337.127,-1.399
337.909,-1.400
338.549,-1.401
339.332,-1.402
339.972,-1.402
340.755,-1.404
341.396,-1.403
342.178,-1.405
342.818,-1.405
343.601,-1.406
344.242,-1.406
345.024,-1.406
345.665,-1.407
346.447,-1.407
347.088,-1.407
347.871,-1.408
348.510,-1.408
349.294,-1.409
349.934,-1.409
350.716,-1.409
351.356,-1.409
352.139,-1.409
352.780,-1.410
353.562,-1.410
354.203,-1.411
354.986,-1.412
355.626,-1.411
356.409,-1.411
357.049,-1.412
357.832,-1.412
358.471,-1.412
359.255,-1.413
359.895,-1.413
360.678,-1.412
361.318,-1.413
362.100,-1.413
362.741,-1.413
363.524,-1.413
364.165,-1.413
364.947,-1.414
365.587,-1.413
366.370,-1.413
367.010,-1.414
367.794,-1.413
368.433,-1.414
369.216,-1.414
369.857,-1.413
370.639,-1.414
371.280,-1.413
372.062,-1.414
372.703,-1.414
373.485,-1.413
374.126,-1.413
374.909,-1.414
375.549,-1.413
376.332,-1.413
376.971,-1.414
377.755,-1.413
378.394,-1.413
379.178,-1.413
379.818,-1.413
380.600,-1.414
381.241,-1.413
382.024,-1.413
382.664,-1.413
383.447,-1.413
384.087,-1.412
384.870,-1.412
385.510,-1.413
386.293,-1.413
386.933,-1.413
387.716,-1.413
388.356,-1.412
389.139,-1.412
389.779,-1.412
390.562,-1.412
391.203,-1.412
391.986,-1.412
392.626,-1.412
393.408,-1.412
394.049,-1.412
394.832,-1.412
395.472,-1.412
396.254,-1.412
396.894,-1.411
397.677,-1.411
398.318,-1.411
399.101,-1.412
399.741,-1.411
400.523,-1.411
401.164,-1.411
401.947,-1.410
402.588,-1.411
403.370,-1.410
404.009,-1.410
404.794,-1.411
405.433,-1.411
406.215,-1.410
406.856,-1.411
407.639,-1.411
408.279,-1.410
409.062,-1.410
409.702,-1.410
410.485,-1.409
411.126,-1.410
411.908,-1.410
412.548,-1.410
413.332,-1.410
413.971,-1.410
414.754,-1.409
415.394,-1.410
416.177,-1.409
416.817,-1.409
417.600,-1.409
418.240,-1.409
419.023,-1.409
419.664,-1.409
420.447,-1.409
421.087,-1.409
421.869,-1.409
422.509,-1.409
423.293,-1.409
423.933,-1.408
424.715,-1.408
425.355,-1.409
426.138,-1.408
426.779,-1.408
427.562,-1.408
428.202,-1.408
428.984,-1.408
429.625,-1.409
430.408,-1.408
431.048,-1.408
431.831,-1.408
432.471,-1.408
433.253,-1.408
433.894,-1.407
434.677,-1.408
435.317,-1.408
436.099,-1.407
436.740,-1.407
437.523,-1.407
438.163,-1.407
438.946,-1.407
439.586,-1.407
440.370,-1.407
441.009,-1.407
441.792,-1.406
442.433,-1.408
443.216,-1.407
443.856,-1.407
444.638,-1.406
445.278,-1.406
446.062,-1.406
446.703,-1.406
447.485,-1.406
448.125,-1.406
448.907,-1.406
449.547,-1.406
450.331,-1.406
450.971,-1.406
451.753,-1.406
452.394,-1.406
453.176,-1.405
453.817,-1.405
454.599,-1.405
455.240,-1.405
456.023,-1.405
456.663,-1.405
457.446,-1.405
458.086,-1.405
458.869,-1.405
459.509,-1.405
460.291,-1.405
460.932,-1.404
461.715,-1.404
462.355,-1.405
463.138,-1.404
463.779,-1.405
464.561,-1.405
465.201,-1.404
465.984,-1.404
466.625,-1.404
467.407,-1.404
468.047,-1.404
468.831,-1.404
469.470,-1.404
470.253,-1.404
470.894,-1.404
471.676,-1.404
472.316,-1.403
473.099,-1.404
473.740,-1.404
474.523,-1.403
475.163,-1.403
475.945,-1.403
476.585,-1.402
477.369,-1.404
478.008,-1.403
478.792,-1.403
479.432,-1.403
480.215,-1.403
480.855,-1.403
481.637,-1.402
482.278,-1.402
483.062,-1.403
483.701,-1.403
484.484,-1.403
485.125,-1.402
485.907,-1.402
486.546,-1.402
487.329,-1.402
487.969,-1.402
488.753,-1.403
489.393,-1.401
490.177,-1.402
490.816,-1.401
491.599,-1.401
492.239,-1.401
493.021,-1.401
493.663,-1.401
494.445,-1.401
495.085,-1.401
495.868,-1.402
496.509,-1.401
497.291,-1.401
497.932,-1.401
498.714,-1.401
499.355,-1.401
500.137,-1.401
500.778,-1.401
501.560,-1.400
502.201,-1.401
502.983,-1.400
503.623,-1.400
504.407,-1.400
505.046,-1.401
505.828,-1.401
506.470,-1.400
507.252,-1.400
507.893,-1.400
508.675,-1.401
509.316,-1.400
510.098,-1.400
510.739,-1.400
511.522,-1.400
512.162,-1.400
512.945,-1.400
513.584,-1.399
514.367,-1.399
515.008,-1.399
515.790,-1.399
516.431,-1.399
517.213,-1.399
517.854,-1.400
518.636,-1.399
519.277,-1.399
520.059,-1.399
520.700,-1.398
521.483,-1.400
522.123,-1.399
522.907,-1.399
523.546,-1.399
524.328,-1.398
524.969,-1.399
525.752,-1.399
526.392,-1.398
527.175,-1.399
527.815,-1.398
528.598,-1.398
529.239,-1.398
530.022,-1.398
530.661,-1.398
531.445,-1.398
532.084,-1.397
532.866,-1.398
533.508,-1.397
534.289,-1.398
534.931,-1.397
535.713,-1.397
536.271,-1.397
536.910,-1.396
537.610,-1.397
538.251,-1.396
539.033,-1.395
539.674,-1.395
540.457,-1.394
541.097,-1.393
541.879,-1.392
542.519,-1.391
543.303,-1.390
543.943,-1.390
544.725,-1.388
545.366,-1.386
546.149,-1.384
546.789,-1.383
547.572,-1.381
548.213,-1.380
548.995,-1.378
549.635,-1.375
550.418,-1.373
551.058,-1.372
551.841,-1.369
552.481,-1.367
553.263,-1.364
553.905,-1.362
554.687,-1.359
555.327,-1.358
556.110,-1.353
556.751,-1.351
557.533,-1.347
558.174,-1.345
558.956,-1.342
559.596,-1.340
560.380,-1.335
561.020,-1.333
561.802,-1.328
562.442,-1.325
563.225,-1.322
563.866,-1.319
564.648,-1.315
565.289,-1.311
566.071,-1.306
566.712,-1.303
567.495,-1.298
568.135,-1.295
568.917,-1.291
569.558,-1.288
570.339,-1.282
570.981,-1.280
571.763,-1.275
572.404,-1.271
573.186,-1.266
573.826,-1.262
574.610,-1.256
575.250,-1.254
576.033,-1.248
576.673,-1.245
577.456,-1.240
578.096,-1.236
578.878,-1.230
579.519,-1.226
580.301,-1.220
580.941,-1.217
581.499,-1.214
582.198,-1.208
582.839,-1.204
583.622,-1.197
584.263,-1.194
585.045,-1.187
585.685,-1.185
586.468,-1.178
587.108,-1.174
587.891,-1.167
588.531,-1.164
589.314,-1.157
589.954,-1.154
590.737,-1.146
591.377,-1.143
592.160,-1.136
592.800,-1.133
593.583,-1.125
594.224,-1.122
595.006,-1.115
595.647,-1.111
596.430,-1.104
597.069,-1.101
597.852,-1.094
598.492,-1.090
599.275,-1.084
599.915,-1.080
600.698,-1.071
601.339,-1.068
601.967,-1.064
602.584,-1.057
603.224,-1.053
603.864,-1.050
604.481,-1.042
605.121,-1.038
605.762,-1.035
606.378,-1.028
607.018,-1.024
607.660,-1.021
608.276,-1.013
608.916,-1.009
609.556,-1.005
610.173,-0.997
610.812,-0.994
611.453,-0.990
612.070,-0.983
612.711,-0.979
613.351,-0.975
613.968,-0.968
614.608,-0.964
615.249,-0.960
615.865,-0.953
616.505,-0.949
617.146,-0.946
617.763,-0.938
618.403,-0.934
619.044,-0.931
619.660,-0.923
620.300,-0.918
620.940,-0.915
621.557,-0.907
622.197,-0.903
622.838,-0.899
623.456,-0.891
624.094,-0.887
624.736,-0.883
625.352,-0.875
625.992,-0.872
626.633,-0.869
627.250,-0.860
627.890,-0.857
628.530,-0.852
629.147,-0.845
629.787,-0.840
630.427,-0.837
631.044,-0.829
631.685,-0.826
632.325,-0.822
632.942,-0.814
633.581,-0.809
634.222,-0.806
634.840,-0.798
635.479,-0.794
636.120,-0.790
636.737,-0.781
637.376,-0.778
638.017,-0.774
638.634,-0.766
639.274,-0.761
639.914,-0.759
640.532,-0.751
641.170,-0.746
641.812,-0.743
642.428,-0.733
643.069,-0.730
643.710,-0.727
644.326,-0.719
644.966,-0.715
645.607,-0.711
646.223,-0.703
646.863,-0.699
647.504,-0.695
648.120,-0.688
648.760,-0.684
649.401,-0.679
650.018,-0.672
650.658,-0.668
651.298,-0.663
651.915,-0.656
652.555,-0.652
653.196,-0.648
653.813,-0.641
654.453,-0.636
655.093,-0.632
655.710,-0.625
656.351,-0.621
656.991,-0.617
657.608,-0.610
658.247,-0.605
658.888,-0.601
659.505,-0.593
660.144,-0.590
660.785,-0.586
661.402,-0.578
662.042,-0.574
662.683,-0.569
663.299,-0.561
663.939,-0.558
664.579,-0.553
665.197,-0.545
665.837,-0.541
666.477,-0.538
667.094,-0.530
667.735,-0.524
668.375,-0.521
668.992,-0.513
669.632,-0.509
670.272,-0.505
670.890,-0.497
671.529,-0.493
672.169,-0.489
672.786,-0.481
673.426,-0.477
674.067,-0.473
674.683,-0.464
675.323,-0.460
675.964,-0.457
676.581,-0.449
677.221,-0.446
677.861,-0.443
678.479,-0.435
679.118,-0.432
679.759,-0.427
680.376,-0.421
681.016,-0.418
681.656,-0.414
682.273,-0.408
682.913,-0.404
683.554,-0.401
684.170,-0.394
684.811,-0.392
685.451,-0.388
686.068,-0.382
686.708,-0.380
687.348,-0.377
687.965,-0.371
688.605,-0.368
689.246,-0.365
689.862,-0.361
690.502,-0.358
691.143,-0.355
691.759,-0.350
692.400,-0.348
693.040,-0.346
693.657,-0.342
694.297,-0.339
694.938,-0.337
695.555,-0.333
696.194,-0.331
696.835,-0.329
697.452,-0.325
698.092,-0.323
698.732,-0.321
699.350,-0.317
699.989,-0.315
700.630,-0.314
701.247,-0.310
701.887,-0.309
702.527,-0.307
703.144,-0.304
703.784,-0.303
704.425,-0.301
705.042,-0.298
705.681,-0.297
706.322,-0.295
706.938,-0.293
707.578,-0.291
708.219,-0.290
708.837,-0.287
709.476,-0.286
710.116,-0.285
710.734,-0.283
711.374,-0.282
712.014,-0.280
712.631,-0.278
713.271,-0.277
713.911,-0.276
714.528,-0.274
715.168,-0.273
715.808,-0.273
716.425,-0.270
717.065,-0.269
717.706,-0.268
718.322,-0.266
718.962,-0.265
719.603,-0.264
720.220,-0.262
720.860,-0.261
721.500,-0.260
722.118,-0.260
722.757,-0.259
723.398,-0.258
724.014,-0.256
724.655,-0.256
725.295,-0.255
725.912,-0.254
726.552,-0.253
727.192,-0.252
727.809,-0.251
728.450,-0.250
729.091,-0.250
729.706,-0.249
730.347,-0.248
730.987,-0.247
731.603,-0.246
732.244,-0.246
732.885,-0.244
733.501,-0.244
734.142,-0.243
734.783,-0.243
735.398,-0.241
736.040,-0.240
736.680,-0.240
737.295,-0.239
737.936,-0.239
738.577,-0.238
739.193,-0.238
739.833,-0.237
740.474,-0.236
741.091,-0.236
741.730,-0.236
742.371,-0.235
742.988,-0.235
743.629,-0.234
744.269,-0.234
744.885,-0.233
745.526,-0.232
746.166,-0.232
746.782,-0.232
747.423,-0.231
748.063,-0.231
748.680,-0.230
749.321,-0.230
749.961,-0.230
750.577,-0.228
751.218,-0.229
751.859,-0.228
752.475,-0.227
753.115,-0.227
753.755,-0.227
754.372,-0.225
755.013,-0.226
755.653,-0.226
756.269,-0.225
756.910,-0.224
757.550,-0.225
758.166,-0.224
758.807,-0.223
759.448,-0.223
760.063,-0.222
760.705,-0.222
761.345,-0.222
761.961,-0.222
762.602,-0.221
763.243,-0.221
763.858,-0.220
764.500,-0.220
765.140,-0.220
765.756,-0.220
766.396,-0.220
767.037,-0.220
767.654,-0.219
768.294,-0.219
768.935,-0.219
769.550,-0.218
770.191,-0.218
770.832,-0.218
771.448,-0.218
772.089,-0.218
772.729,-0.217
773.345,-0.216
773.986,-0.217
774.627,-0.216
775.243,-0.216
775.883,-0.216
776.524,-0.216
777.140,-0.215
777.780,-0.215
778.421,-0.214
779.038,-0.215
779.678,-0.215
780.319,-0.214
780.935,-0.214
781.576,-0.214
782.216,-0.213
782.831,-0.213
783.473,-0.212
784.113,-0.213
784.730,-0.212
785.370,-0.213
786.011,-0.212
786.626,-0.212
787.267,-0.212
787.908,-0.211
788.525,-0.211
789.165,-0.212
789.805,-0.212
790.421,-0.211
791.062,-0.211
791.702,-0.211
792.318,-0.211
792.959,-0.211
793.600,-0.210
794.216,-0.210
794.857,-0.210
795.497,-0.210
796.113,-0.209
796.754,-0.209
797.394,-0.209
798.011,-0.209
798.651,-0.208
799.291,-0.209
799.908,-0.208
800.549,-0.208
801.189,-0.208
801.806,-0.208
802.446,-0.208
803.086,-0.208
803.703,-0.207
804.343,-0.208
804.983,-0.208
805.600,-0.207
806.240,-0.208
806.881,-0.207
807.497,-0.207
808.138,-0.207
808.777,-0.207
809.395,-0.206
810.035,-0.206
810.675,-0.206
811.292,-0.206
811.933,-0.206
812.572,-0.206
813.189,-0.205
813.829,-0.206
814.469,-0.205
815.087,-0.206
815.728,-0.205
816.367,-0.205
816.984,-0.205
817.625,-0.204
818.264,-0.205
818.882,-0.205
819.522,-0.205
820.162,-0.205
820.779,-0.204
821.419,-0.204
822.059,-0.205
822.676,-0.204
823.316,-0.204
823.957,-0.203
824.574,-0.203
825.214,-0.204
825.854,-0.204
826.470,-0.203
827.112,-0.204
827.751,-0.203
828.368,-0.203
829.009,-0.203
829.648,-0.203
830.265,-0.202
830.906,-0.203
831.546,-0.203
832.163,-0.203
832.804,-0.202
833.443,-0.202
834.060,-0.202
834.701,-0.202
835.341,-0.202
835.957,-0.202
836.598,-0.202
837.238,-0.201
837.854,-0.202
838.495,-0.202
839.135,-0.201
839.752,-0.202
840.393,-0.202
841.032,-0.202
841.649,-0.201
842.290,-0.201
842.929,-0.202
843.547,-0.201
844.186,-0.201
844.827,-0.201
845.444,-0.200
846.083,-0.200
846.724,-0.200
847.342,-0.200
847.982,-0.200
848.621,-0.201
849.238,-0.200
849.879,-0.201
850.520,-0.200
851.136,-0.200
851.776,-0.200
852.417,-0.200
853.034,-0.201
853.673,-0.200
854.314,-0.200
854.931,-0.200
855.570,-0.200
856.212,-0.200
856.828,-0.199
857.468,-0.200
858.108,-0.199
858.725,-0.199
859.365,-0.200
860.006,-0.199
860.622,-0.199
861.262,-0.199
861.903,-0.199
862.520,-0.199
863.160,-0.199
863.800,-0.199
864.500,-0.199
865.141,-0.199
865.839,-0.198
866.480,-0.198
867.121,-0.199
867.737,-0.199
868.378,-0.199
869.018,-0.199
